OSA WDM Report

Results

Trace Identification

File name:  	
Job ID:  	
Cable ID:  	
Fiber ID:  	
Customer:  	
Company:  	
Operator:  	
Maintenance reason:  	
Link ID:  	332
Orientation:  	None
System:  	
Network element:  	None
Test point:  	None
Description:  	
Comments:  	

Acquisition Conditions

Acquisition type:  	Real Time
Number of scans:  	1
Spectral range start:  	1540,000 nm
Spectral range stop:  	1560,000 nm
User calibration:  	Factory
Calibration date:  	2017-12-22
Acquisition start time:  	2024-09-25 13:31:02
Acquisition stop time:  	2024-09-25 13:31:14
Hardware model:  	FTBx-5245-EA
Serial number:  	1085158
RBW value:  	0,043 nm

Global Results

Average signal power:  	---
Signal power flatness:  	---
Average OSNR:  	---
OSNR flatness:  	---
Total power in scan range:  	-44,94 dBm
Channel count:  	0
Empty channel count:  	0

Global Test Result

Status:  	Not Active

Channel Results

Ch.#	Name	λ (nm)	Δλ (nm)	λ Peak (nm)	∆λ Peak (nm)	Signal Power (dBm)	OSNR (dB)	NoisedBm	Bandwidth 3,00 dB (nm)	Bandwidth 20,00 dB (nm)	ENBW (nm)	Transmitter Trace	Warning	


Analysis Parameters

Default Channel Analysis

Activate default channel:  	ON
Snap to ITU grid:  	OFF
Channel width:  	50,0 GHz
Signal power calculation:  	Integrated signal power
Noise for OSNR:  	Fixed range IEC based
OSNR distance:  	25,0 GHz
Noise region:  	2,5 GHz

Default Channel Thresholds

Signal power min.:  	-45,00 dBm
Signal power max.:  	15,00 dBm
Noise min.:  	-99,99 dBm
Noise max.:  	-40,00 dBm
OSNR min.:  	5,00 dB
OSNR max.:  	60,00 dB
Wavelength max. dev. ±:  	0,020 nm

Global Analysis

Peak detection level:  	-33,00 dBm
RBW for OSNR:  	0,100 nm
Wavelength offset:  	0,000 nm
Power offset:  	0,00 dB
Bandwidth at:  	20,00 dB

Global Thresholds

Average signal power min.:  	-45,00 dBm
Average signal power max.:  	15,00 dBm
Signal power flatness max.:  	1,00 dB
Average OSNR min.:  	5,00 dB
Average OSNR max.:  	60,00 dB
OSNR flatness max.:  	10,00 dB

Channel List

Name	λ (nm)	Channel Width	Signal Power	Noise for OSNR	Transmitter Trace	OSNR Distance	Noise Region	Signal Power Min. (dBm)	Signal Power Max. (dBm)	Noise Min. (dBm)	Noise Max. (dBm)	OSNR Min. (dB)	OSNR Max. (dB)	Wavelength Max. Dev. (nm)	

Graph

λ (nm)	Power (dBm)	
1540,000	-72,97	
1540,002	-72,97	
1540,004	-72,97	
1540,006	-72,97	
1540,008	-72,97	
1540,010	-72,97	
1540,012	-72,97	
1540,014	-71,36	
1540,016	-71,63	
1540,018	-72,97	
1540,020	-72,97	
1540,022	-69,51	
1540,024	-72,97	
1540,026	-72,97	
1540,028	-70,53	
1540,030	-72,97	
1540,032	-72,35	
1540,034	-69,00	
1540,036	-69,63	
1540,038	-71,53	
1540,040	-72,97	
1540,042	-69,22	
1540,044	-72,97	
1540,046	-72,97	
1540,048	-70,94	
1540,050	-72,97	
1540,052	-72,97	
1540,054	-72,97	
1540,056	-71,81	
1540,058	-72,97	
1540,060	-70,26	
1540,062	-70,20	
1540,064	-72,97	
1540,066	-72,97	
1540,068	-72,97	
1540,070	-72,97	
1540,072	-72,97	
1540,074	-72,97	
1540,076	-72,97	
1540,078	-72,97	
1540,080	-72,97	
1540,082	-69,78	
1540,084	-72,97	
1540,086	-71,06	
1540,088	-70,56	
1540,090	-70,35	
1540,092	-72,97	
1540,094	-72,97	
1540,096	-71,40	
1540,098	-72,56	
1540,100	-72,97	
1540,102	-72,97	
1540,104	-72,97	
1540,106	-72,97	
1540,108	-68,71	
1540,110	-72,97	
1540,112	-70,21	
1540,114	-72,97	
1540,116	-72,93	
1540,118	-69,01	
1540,120	-72,97	
1540,122	-70,46	
1540,124	-71,31	
1540,126	-72,89	
1540,128	-72,97	
1540,130	-72,97	
1540,132	-72,97	
1540,134	-72,97	
1540,136	-71,70	
1540,138	-69,49	
1540,140	-69,72	
1540,142	-72,97	
1540,144	-72,97	
1540,146	-72,97	
1540,148	-72,97	
1540,150	-72,97	
1540,152	-72,97	
1540,154	-72,97	
1540,156	-72,97	
1540,158	-72,97	
1540,160	-72,97	
1540,162	-72,97	
1540,164	-72,54	
1540,166	-72,32	
1540,168	-70,45	
1540,170	-72,97	
1540,172	-72,97	
1540,174	-72,97	
1540,176	-72,97	
1540,178	-71,13	
1540,180	-70,35	
1540,182	-72,97	
1540,184	-72,97	
1540,186	-72,97	
1540,188	-72,97	
1540,190	-72,97	
1540,192	-72,97	
1540,194	-71,75	
1540,196	-71,98	
1540,198	-67,69	
1540,200	-69,27	
1540,202	-70,50	
1540,204	-72,61	
1540,206	-72,97	
1540,208	-72,97	
1540,210	-72,97	
1540,212	-72,97	
1540,214	-72,97	
1540,216	-72,97	
1540,218	-72,97	
1540,220	-72,97	
1540,222	-72,97	
1540,224	-72,97	
1540,226	-72,97	
1540,228	-72,97	
1540,230	-69,25	
1540,232	-68,33	
1540,234	-70,98	
1540,236	-72,80	
1540,238	-72,97	
1540,240	-72,97	
1540,242	-72,97	
1540,244	-72,83	
1540,246	-70,92	
1540,248	-70,01	
1540,250	-72,57	
1540,252	-72,97	
1540,254	-72,97	
1540,256	-68,91	
1540,258	-69,42	
1540,260	-72,97	
1540,262	-71,35	
1540,264	-72,97	
1540,266	-72,97	
1540,268	-72,97	
1540,270	-72,97	
1540,272	-72,97	
1540,274	-71,61	
1540,276	-72,97	
1540,278	-72,97	
1540,280	-71,65	
1540,282	-72,45	
1540,284	-69,84	
1540,286	-69,94	
1540,288	-71,48	
1540,290	-71,57	
1540,292	-72,97	
1540,294	-72,74	
1540,296	-72,65	
1540,298	-72,97	
1540,300	-69,90	
1540,302	-72,97	
1540,304	-71,06	
1540,306	-72,97	
1540,308	-72,97	
1540,310	-69,31	
1540,312	-71,84	
1540,314	-69,87	
1540,316	-72,36	
1540,318	-72,97	
1540,320	-72,97	
1540,322	-72,97	
1540,324	-72,97	
1540,326	-72,97	
1540,328	-71,96	
1540,330	-72,97	
1540,332	-72,97	
1540,334	-72,97	
1540,336	-72,97	
1540,338	-72,97	
1540,340	-72,97	
1540,342	-72,97	
1540,344	-67,76	
1540,346	-70,52	
1540,348	-72,97	
1540,350	-72,97	
1540,352	-69,16	
1540,354	-72,97	
1540,356	-72,97	
1540,358	-72,97	
1540,360	-72,97	
1540,362	-72,97	
1540,364	-72,97	
1540,366	-72,97	
1540,368	-68,73	
1540,370	-71,35	
1540,372	-69,44	
1540,374	-68,52	
1540,376	-69,76	
1540,378	-71,74	
1540,380	-72,97	
1540,382	-72,97	
1540,384	-72,97	
1540,386	-72,97	
1540,388	-72,97	
1540,390	-72,97	
1540,392	-72,97	
1540,394	-72,97	
1540,396	-72,97	
1540,398	-72,97	
1540,400	-72,97	
1540,402	-72,97	
1540,404	-72,97	
1540,406	-72,33	
1540,408	-68,68	
1540,410	-70,26	
1540,412	-72,97	
1540,414	-72,97	
1540,416	-72,97	
1540,418	-70,73	
1540,420	-68,75	
1540,422	-72,97	
1540,424	-72,97	
1540,426	-72,97	
1540,428	-72,97	
1540,430	-69,77	
1540,432	-71,74	
1540,434	-72,03	
1540,436	-68,27	
1540,438	-72,32	
1540,440	-72,97	
1540,442	-72,97	
1540,444	-72,97	
1540,446	-72,97	
1540,448	-72,97	
1540,450	-72,97	
1540,452	-72,97	
1540,454	-70,79	
1540,456	-70,88	
1540,458	-68,13	
1540,460	-72,97	
1540,462	-72,97	
1540,464	-72,97	
1540,466	-72,59	
1540,468	-72,97	
1540,470	-72,97	
1540,472	-72,97	
1540,474	-72,73	
1540,476	-68,65	
1540,478	-70,35	
1540,480	-72,97	
1540,482	-72,97	
1540,484	-71,98	
1540,486	-72,97	
1540,488	-72,97	
1540,490	-72,97	
1540,492	-72,97	
1540,494	-71,01	
1540,496	-71,25	
1540,498	-72,97	
1540,500	-72,97	
1540,502	-69,99	
1540,504	-67,88	
1540,506	-69,33	
1540,508	-72,97	
1540,510	-70,80	
1540,512	-72,97	
1540,514	-72,97	
1540,516	-72,97	
1540,518	-72,97	
1540,520	-72,97	
1540,522	-72,97	
1540,524	-72,97	
1540,526	-72,97	
1540,528	-72,97	
1540,530	-71,54	
1540,532	-69,67	
1540,534	-72,97	
1540,536	-72,97	
1540,538	-72,97	
1540,540	-72,97	
1540,542	-72,97	
1540,544	-72,97	
1540,546	-71,93	
1540,548	-72,97	
1540,550	-72,97	
1540,552	-71,54	
1540,554	-69,60	
1540,556	-72,52	
1540,558	-72,97	
1540,560	-72,97	
1540,562	-72,97	
1540,564	-72,97	
1540,566	-69,22	
1540,568	-68,06	
1540,570	-72,79	
1540,572	-70,70	
1540,574	-72,97	
1540,576	-72,97	
1540,578	-72,33	
1540,580	-71,99	
1540,582	-72,97	
1540,584	-72,97	
1540,586	-72,97	
1540,588	-72,97	
1540,590	-72,97	
1540,592	-72,97	
1540,594	-72,97	
1540,596	-72,97	
1540,598	-71,62	
1540,600	-72,97	
1540,602	-72,97	
1540,604	-72,97	
1540,606	-72,97	
1540,608	-72,97	
1540,610	-71,84	
1540,612	-72,97	
1540,614	-72,97	
1540,616	-72,97	
1540,618	-72,97	
1540,620	-72,97	
1540,622	-70,70	
1540,624	-71,07	
1540,626	-72,97	
1540,628	-72,97	
1540,630	-72,97	
1540,632	-69,79	
1540,634	-72,97	
1540,636	-71,13	
1540,638	-72,97	
1540,640	-72,03	
1540,642	-72,97	
1540,644	-72,97	
1540,646	-72,97	
1540,648	-72,97	
1540,650	-72,97	
1540,652	-72,97	
1540,654	-72,97	
1540,656	-72,47	
1540,658	-69,61	
1540,660	-72,19	
1540,662	-72,97	
1540,664	-72,97	
1540,666	-72,97	
1540,668	-72,97	
1540,670	-72,97	
1540,672	-72,97	
1540,674	-72,97	
1540,676	-72,97	
1540,678	-72,97	
1540,680	-72,97	
1540,682	-72,97	
1540,684	-72,97	
1540,686	-72,97	
1540,688	-72,97	
1540,690	-72,97	
1540,692	-72,34	
1540,694	-72,84	
1540,696	-72,97	
1540,698	-69,11	
1540,700	-72,97	
1540,702	-72,97	
1540,704	-72,97	
1540,706	-72,97	
1540,708	-71,16	
1540,710	-72,97	
1540,712	-72,97	
1540,714	-72,97	
1540,716	-72,97	
1540,718	-72,97	
1540,720	-72,97	
1540,722	-69,49	
1540,724	-72,97	
1540,726	-72,97	
1540,728	-72,97	
1540,730	-72,97	
1540,732	-72,97	
1540,734	-71,44	
1540,736	-72,97	
1540,738	-72,18	
1540,740	-72,97	
1540,742	-72,97	
1540,744	-72,63	
1540,746	-72,97	
1540,748	-72,97	
1540,750	-72,97	
1540,752	-72,25	
1540,754	-72,97	
1540,756	-72,97	
1540,758	-70,80	
1540,760	-72,30	
1540,762	-72,97	
1540,764	-72,97	
1540,766	-72,97	
1540,768	-72,97	
1540,770	-72,97	
1540,772	-72,97	
1540,774	-72,76	
1540,776	-72,93	
1540,778	-72,97	
1540,780	-72,97	
1540,782	-69,74	
1540,784	-68,99	
1540,786	-72,97	
1540,788	-72,97	
1540,790	-71,09	
1540,792	-71,57	
1540,794	-67,41	
1540,796	-69,65	
1540,798	-70,69	
1540,800	-72,74	
1540,802	-72,97	
1540,804	-72,97	
1540,806	-72,97	
1540,808	-72,97	
1540,810	-72,97	
1540,812	-70,24	
1540,814	-72,97	
1540,816	-72,97	
1540,818	-72,97	
1540,820	-69,83	
1540,822	-72,97	
1540,824	-72,97	
1540,826	-72,97	
1540,828	-72,97	
1540,830	-72,97	
1540,832	-68,29	
1540,834	-69,87	
1540,836	-72,96	
1540,838	-72,97	
1540,840	-72,97	
1540,842	-72,97	
1540,844	-72,97	
1540,846	-72,97	
1540,848	-72,97	
1540,850	-72,97	
1540,852	-72,97	
1540,854	-72,97	
1540,856	-70,38	
1540,858	-71,02	
1540,860	-72,97	
1540,862	-69,43	
1540,864	-71,06	
1540,866	-69,15	
1540,868	-72,97	
1540,870	-72,78	
1540,872	-69,75	
1540,874	-72,97	
1540,876	-72,97	
1540,878	-72,97	
1540,880	-72,97	
1540,882	-72,97	
1540,884	-72,97	
1540,886	-70,99	
1540,888	-72,97	
1540,890	-72,97	
1540,892	-72,97	
1540,894	-72,97	
1540,896	-72,97	
1540,898	-70,57	
1540,900	-69,08	
1540,902	-72,97	
1540,904	-72,97	
1540,906	-72,92	
1540,908	-72,97	
1540,910	-69,04	
1540,912	-72,97	
1540,914	-72,97	
1540,916	-72,97	
1540,918	-72,97	
1540,920	-72,97	
1540,922	-72,97	
1540,924	-72,97	
1540,926	-72,97	
1540,928	-72,97	
1540,930	-72,97	
1540,932	-72,97	
1540,934	-72,97	
1540,936	-72,97	
1540,938	-72,84	
1540,940	-72,97	
1540,942	-72,97	
1540,944	-72,97	
1540,946	-72,05	
1540,948	-71,12	
1540,950	-72,79	
1540,952	-72,97	
1540,954	-72,97	
1540,956	-67,85	
1540,958	-70,70	
1540,960	-72,05	
1540,962	-72,97	
1540,964	-72,97	
1540,966	-72,97	
1540,968	-72,97	
1540,970	-72,97	
1540,972	-69,95	
1540,974	-72,49	
1540,976	-72,97	
1540,978	-71,90	
1540,980	-71,27	
1540,982	-72,97	
1540,984	-72,97	
1540,986	-72,39	
1540,988	-71,05	
1540,990	-69,55	
1540,992	-71,30	
1540,994	-71,80	
1540,996	-72,11	
1540,998	-69,47	
1541,000	-70,53	
1541,002	-72,97	
1541,004	-70,46	
1541,006	-72,81	
1541,008	-72,97	
1541,010	-72,97	
1541,012	-72,97	
1541,014	-72,97	
1541,016	-72,97	
1541,018	-72,97	
1541,020	-72,97	
1541,022	-71,13	
1541,024	-70,84	
1541,026	-72,97	
1541,028	-71,87	
1541,030	-72,97	
1541,032	-72,97	
1541,034	-72,97	
1541,036	-72,97	
1541,038	-72,97	
1541,040	-72,97	
1541,042	-72,97	
1541,044	-72,97	
1541,046	-68,96	
1541,048	-71,76	
1541,050	-68,08	
1541,052	-68,72	
1541,054	-72,97	
1541,056	-72,97	
1541,058	-72,97	
1541,060	-70,73	
1541,062	-72,69	
1541,064	-72,41	
1541,066	-70,00	
1541,068	-70,96	
1541,070	-71,41	
1541,072	-72,66	
1541,074	-72,97	
1541,076	-71,48	
1541,078	-71,99	
1541,080	-71,60	
1541,082	-72,97	
1541,084	-72,97	
1541,086	-72,97	
1541,088	-72,97	
1541,090	-72,89	
1541,092	-70,20	
1541,094	-72,97	
1541,096	-71,60	
1541,098	-72,97	
1541,100	-72,97	
1541,102	-72,97	
1541,104	-71,40	
1541,106	-71,65	
1541,108	-70,25	
1541,110	-68,26	
1541,112	-69,07	
1541,114	-71,71	
1541,116	-72,54	
1541,118	-72,97	
1541,120	-72,97	
1541,122	-72,97	
1541,124	-72,97	
1541,126	-72,97	
1541,128	-70,74	
1541,130	-67,01	
1541,132	-67,37	
1541,134	-70,47	
1541,136	-72,97	
1541,138	-72,97	
1541,140	-72,97	
1541,142	-72,97	
1541,144	-72,97	
1541,146	-72,97	
1541,148	-71,82	
1541,150	-67,38	
1541,152	-72,49	
1541,154	-71,05	
1541,156	-68,88	
1541,158	-69,48	
1541,160	-72,97	
1541,162	-72,97	
1541,164	-72,97	
1541,166	-71,05	
1541,168	-70,57	
1541,170	-70,90	
1541,172	-69,06	
1541,174	-70,40	
1541,176	-70,44	
1541,178	-72,97	
1541,180	-72,97	
1541,182	-70,72	
1541,184	-72,97	
1541,186	-72,97	
1541,188	-72,97	
1541,190	-72,97	
1541,192	-72,97	
1541,194	-71,25	
1541,196	-69,19	
1541,198	-68,59	
1541,200	-72,97	
1541,202	-72,97	
1541,204	-69,86	
1541,206	-72,97	
1541,208	-72,65	
1541,210	-72,97	
1541,212	-72,97	
1541,214	-72,97	
1541,216	-72,97	
1541,218	-72,97	
1541,220	-72,97	
1541,222	-71,44	
1541,224	-68,51	
1541,226	-72,97	
1541,228	-72,97	
1541,230	-69,25	
1541,232	-70,66	
1541,234	-72,97	
1541,236	-72,97	
1541,238	-72,97	
1541,240	-72,97	
1541,242	-72,97	
1541,244	-72,97	
1541,246	-72,97	
1541,248	-72,97	
1541,250	-70,75	
1541,252	-72,97	
1541,254	-72,97	
1541,256	-72,24	
1541,258	-72,97	
1541,260	-72,97	
1541,262	-71,64	
1541,264	-66,91	
1541,266	-70,57	
1541,268	-72,97	
1541,270	-71,30	
1541,272	-72,97	
1541,274	-72,97	
1541,276	-72,97	
1541,278	-72,97	
1541,280	-72,97	
1541,282	-72,97	
1541,284	-70,05	
1541,286	-72,41	
1541,288	-72,97	
1541,290	-69,11	
1541,292	-67,63	
1541,294	-71,79	
1541,296	-70,24	
1541,298	-69,91	
1541,300	-72,97	
1541,302	-72,97	
1541,304	-72,97	
1541,306	-72,97	
1541,308	-72,58	
1541,310	-72,47	
1541,312	-72,97	
1541,314	-72,97	
1541,316	-72,97	
1541,318	-72,97	
1541,320	-70,13	
1541,322	-72,97	
1541,324	-72,97	
1541,326	-72,97	
1541,328	-72,97	
1541,330	-72,97	
1541,332	-72,97	
1541,334	-72,97	
1541,336	-72,97	
1541,338	-70,36	
1541,340	-69,19	
1541,342	-71,40	
1541,344	-72,97	
1541,346	-71,56	
1541,348	-72,97	
1541,350	-72,97	
1541,352	-72,97	
1541,354	-72,97	
1541,356	-72,97	
1541,358	-72,67	
1541,360	-72,97	
1541,362	-72,97	
1541,364	-72,97	
1541,366	-72,97	
1541,368	-72,97	
1541,370	-72,97	
1541,372	-69,66	
1541,374	-70,43	
1541,376	-72,21	
1541,378	-67,69	
1541,380	-69,63	
1541,382	-70,22	
1541,384	-71,60	
1541,386	-72,97	
1541,388	-72,97	
1541,390	-72,97	
1541,392	-72,97	
1541,394	-71,00	
1541,396	-72,97	
1541,398	-68,64	
1541,400	-71,13	
1541,402	-68,12	
1541,404	-67,72	
1541,406	-72,97	
1541,408	-72,36	
1541,410	-69,98	
1541,412	-72,97	
1541,414	-69,33	
1541,416	-72,97	
1541,418	-70,65	
1541,420	-72,97	
1541,422	-71,44	
1541,424	-68,69	
1541,426	-72,97	
1541,428	-72,97	
1541,430	-72,97	
1541,432	-72,97	
1541,434	-72,97	
1541,436	-72,97	
1541,438	-72,97	
1541,440	-72,97	
1541,442	-70,42	
1541,444	-69,96	
1541,446	-72,86	
1541,448	-72,97	
1541,450	-66,78	
1541,452	-72,97	
1541,454	-72,43	
1541,456	-72,11	
1541,458	-72,97	
1541,460	-72,97	
1541,462	-72,97	
1541,464	-72,97	
1541,466	-71,66	
1541,468	-72,02	
1541,470	-72,97	
1541,472	-68,10	
1541,474	-68,32	
1541,476	-72,97	
1541,478	-72,97	
1541,480	-72,97	
1541,482	-72,97	
1541,484	-72,97	
1541,486	-72,97	
1541,488	-69,97	
1541,490	-68,46	
1541,492	-69,60	
1541,494	-71,87	
1541,496	-72,97	
1541,498	-72,97	
1541,500	-72,97	
1541,502	-72,11	
1541,504	-72,29	
1541,506	-72,97	
1541,508	-72,04	
1541,510	-72,97	
1541,512	-72,97	
1541,514	-70,80	
1541,516	-72,97	
1541,518	-72,97	
1541,520	-72,10	
1541,522	-72,97	
1541,524	-72,19	
1541,526	-72,97	
1541,528	-72,97	
1541,530	-70,47	
1541,532	-72,97	
1541,534	-72,97	
1541,536	-72,97	
1541,538	-72,97	
1541,540	-70,87	
1541,542	-70,98	
1541,544	-70,41	
1541,546	-70,77	
1541,548	-69,90	
1541,550	-70,73	
1541,552	-70,05	
1541,554	-71,45	
1541,556	-72,97	
1541,558	-72,97	
1541,560	-72,97	
1541,562	-70,62	
1541,564	-72,65	
1541,566	-70,85	
1541,568	-71,25	
1541,570	-71,17	
1541,572	-72,97	
1541,574	-72,97	
1541,576	-72,97	
1541,578	-72,97	
1541,580	-72,97	
1541,582	-70,06	
1541,584	-72,97	
1541,586	-72,97	
1541,588	-69,69	
1541,590	-71,91	
1541,592	-72,97	
1541,594	-70,76	
1541,596	-68,05	
1541,598	-72,97	
1541,600	-72,97	
1541,602	-72,97	
1541,604	-72,97	
1541,606	-72,97	
1541,608	-72,29	
1541,610	-72,97	
1541,612	-72,97	
1541,614	-69,80	
1541,616	-69,85	
1541,618	-72,97	
1541,620	-72,97	
1541,622	-69,87	
1541,624	-72,97	
1541,626	-72,97	
1541,628	-72,97	
1541,630	-70,61	
1541,632	-72,03	
1541,634	-72,97	
1541,636	-72,97	
1541,638	-72,97	
1541,640	-72,97	
1541,642	-72,97	
1541,644	-72,97	
1541,646	-72,97	
1541,648	-72,96	
1541,650	-71,63	
1541,652	-68,64	
1541,654	-68,76	
1541,656	-72,97	
1541,658	-72,97	
1541,660	-72,97	
1541,662	-72,80	
1541,664	-71,58	
1541,666	-70,63	
1541,668	-72,97	
1541,670	-72,97	
1541,672	-72,52	
1541,674	-70,05	
1541,676	-68,79	
1541,678	-72,97	
1541,680	-72,97	
1541,682	-72,97	
1541,684	-72,97	
1541,686	-71,79	
1541,688	-72,97	
1541,690	-72,97	
1541,692	-72,97	
1541,694	-72,97	
1541,696	-72,97	
1541,698	-70,36	
1541,700	-68,63	
1541,702	-68,78	
1541,704	-70,77	
1541,706	-70,24	
1541,708	-72,12	
1541,710	-70,95	
1541,712	-69,48	
1541,714	-71,25	
1541,716	-72,97	
1541,718	-72,79	
1541,720	-72,97	
1541,722	-72,97	
1541,724	-72,97	
1541,726	-72,97	
1541,728	-72,97	
1541,730	-72,97	
1541,732	-72,97	
1541,734	-72,97	
1541,736	-72,97	
1541,738	-72,97	
1541,740	-69,54	
1541,742	-69,89	
1541,744	-70,57	
1541,746	-69,91	
1541,748	-68,08	
1541,750	-66,55	
1541,752	-67,99	
1541,754	-68,15	
1541,756	-70,20	
1541,758	-72,97	
1541,760	-72,97	
1541,762	-72,97	
1541,764	-72,97	
1541,766	-72,97	
1541,768	-69,47	
1541,770	-70,61	
1541,772	-70,43	
1541,774	-72,97	
1541,776	-72,97	
1541,778	-72,44	
1541,780	-72,97	
1541,782	-72,43	
1541,784	-72,97	
1541,786	-70,31	
1541,788	-70,02	
1541,790	-69,64	
1541,792	-70,46	
1541,794	-71,78	
1541,796	-72,97	
1541,798	-69,89	
1541,800	-72,75	
1541,802	-71,08	
1541,804	-72,08	
1541,806	-72,97	
1541,808	-70,44	
1541,810	-70,54	
1541,812	-69,37	
1541,814	-72,17	
1541,816	-72,97	
1541,818	-72,97	
1541,820	-72,97	
1541,822	-72,97	
1541,824	-71,65	
1541,826	-72,97	
1541,828	-72,97	
1541,830	-68,68	
1541,832	-72,97	
1541,834	-72,97	
1541,836	-72,97	
1541,838	-72,20	
1541,840	-71,39	
1541,842	-71,57	
1541,844	-71,18	
1541,846	-70,81	
1541,848	-72,97	
1541,850	-72,97	
1541,852	-72,97	
1541,854	-72,97	
1541,856	-69,87	
1541,858	-68,30	
1541,860	-71,20	
1541,862	-72,97	
1541,864	-72,97	
1541,866	-72,97	
1541,868	-72,97	
1541,870	-72,97	
1541,872	-72,97	
1541,874	-72,97	
1541,876	-68,89	
1541,878	-69,20	
1541,880	-69,57	
1541,882	-71,62	
1541,884	-72,15	
1541,886	-72,97	
1541,888	-72,97	
1541,890	-72,97	
1541,892	-72,97	
1541,894	-72,97	
1541,896	-72,65	
1541,898	-72,97	
1541,900	-72,97	
1541,902	-71,82	
1541,904	-72,97	
1541,906	-71,51	
1541,908	-72,97	
1541,910	-69,36	
1541,912	-72,97	
1541,914	-72,97	
1541,916	-72,97	
1541,918	-72,97	
1541,920	-72,97	
1541,922	-72,97	
1541,924	-72,02	
1541,926	-72,97	
1541,928	-72,97	
1541,930	-69,07	
1541,932	-72,97	
1541,934	-72,97	
1541,936	-72,97	
1541,938	-72,97	
1541,940	-72,60	
1541,942	-72,97	
1541,944	-72,97	
1541,946	-72,97	
1541,948	-72,97	
1541,950	-72,97	
1541,952	-72,97	
1541,954	-69,84	
1541,956	-69,01	
1541,958	-67,99	
1541,960	-69,43	
1541,962	-71,39	
1541,964	-72,75	
1541,966	-72,68	
1541,968	-71,56	
1541,970	-72,97	
1541,972	-68,19	
1541,974	-72,97	
1541,976	-69,80	
1541,978	-72,97	
1541,980	-72,97	
1541,982	-72,97	
1541,984	-72,97	
1541,986	-72,97	
1541,988	-72,97	
1541,990	-72,97	
1541,992	-72,97	
1541,994	-70,42	
1541,996	-70,97	
1541,998	-69,19	
1542,000	-72,97	
1542,002	-72,97	
1542,004	-72,97	
1542,006	-72,97	
1542,008	-71,84	
1542,010	-71,70	
1542,012	-69,60	
1542,014	-68,03	
1542,016	-69,63	
1542,018	-72,97	
1542,020	-72,75	
1542,022	-72,97	
1542,024	-72,97	
1542,026	-72,97	
1542,028	-71,39	
1542,030	-70,56	
1542,032	-72,97	
1542,034	-72,97	
1542,036	-70,00	
1542,038	-67,68	
1542,040	-68,39	
1542,042	-72,97	
1542,044	-71,95	
1542,046	-71,34	
1542,048	-72,26	
1542,050	-71,80	
1542,052	-72,96	
1542,054	-72,97	
1542,056	-72,97	
1542,058	-72,97	
1542,060	-72,97	
1542,062	-71,21	
1542,064	-66,96	
1542,066	-69,11	
1542,068	-70,36	
1542,070	-71,29	
1542,072	-68,19	
1542,074	-67,39	
1542,076	-71,75	
1542,078	-72,97	
1542,080	-72,97	
1542,082	-72,97	
1542,084	-72,97	
1542,086	-72,97	
1542,088	-68,83	
1542,090	-72,97	
1542,092	-72,97	
1542,094	-70,30	
1542,096	-72,97	
1542,098	-72,97	
1542,100	-72,97	
1542,102	-70,85	
1542,104	-72,97	
1542,106	-72,97	
1542,108	-72,97	
1542,110	-72,97	
1542,112	-72,97	
1542,114	-72,97	
1542,116	-72,97	
1542,118	-72,97	
1542,120	-72,97	
1542,122	-72,97	
1542,124	-72,97	
1542,126	-72,97	
1542,128	-72,97	
1542,130	-72,97	
1542,132	-70,09	
1542,134	-70,78	
1542,136	-72,97	
1542,138	-72,97	
1542,140	-72,95	
1542,142	-72,97	
1542,144	-72,97	
1542,146	-72,97	
1542,148	-72,97	
1542,150	-70,92	
1542,152	-72,97	
1542,154	-72,97	
1542,156	-72,97	
1542,158	-72,16	
1542,160	-72,39	
1542,162	-72,03	
1542,164	-68,75	
1542,166	-68,94	
1542,168	-72,97	
1542,170	-72,97	
1542,172	-72,97	
1542,174	-72,97	
1542,176	-72,97	
1542,178	-72,97	
1542,180	-69,36	
1542,182	-71,45	
1542,184	-72,01	
1542,186	-72,97	
1542,188	-72,97	
1542,190	-72,97	
1542,192	-70,60	
1542,194	-72,97	
1542,196	-72,97	
1542,198	-72,97	
1542,200	-72,97	
1542,202	-72,97	
1542,204	-72,97	
1542,206	-72,79	
1542,208	-72,97	
1542,210	-72,97	
1542,212	-72,97	
1542,214	-72,97	
1542,216	-72,97	
1542,218	-69,69	
1542,220	-72,84	
1542,222	-72,97	
1542,224	-72,43	
1542,226	-69,90	
1542,228	-72,97	
1542,230	-70,46	
1542,232	-67,62	
1542,234	-72,97	
1542,236	-72,97	
1542,238	-72,29	
1542,240	-72,97	
1542,242	-72,97	
1542,244	-72,97	
1542,246	-72,97	
1542,248	-72,97	
1542,250	-72,97	
1542,252	-72,97	
1542,254	-72,97	
1542,256	-72,97	
1542,258	-72,97	
1542,260	-72,31	
1542,262	-72,81	
1542,264	-72,97	
1542,266	-70,93	
1542,268	-72,97	
1542,270	-72,97	
1542,272	-69,24	
1542,274	-68,94	
1542,276	-72,97	
1542,278	-72,97	
1542,280	-72,97	
1542,282	-72,72	
1542,284	-72,97	
1542,286	-72,97	
1542,288	-71,68	
1542,290	-72,97	
1542,292	-72,97	
1542,294	-72,97	
1542,296	-72,08	
1542,298	-72,97	
1542,300	-72,97	
1542,302	-72,97	
1542,304	-69,77	
1542,306	-71,57	
1542,308	-71,76	
1542,310	-69,81	
1542,312	-72,97	
1542,314	-70,87	
1542,316	-72,97	
1542,318	-71,70	
1542,320	-72,97	
1542,322	-72,97	
1542,324	-72,97	
1542,326	-72,97	
1542,328	-72,97	
1542,330	-69,00	
1542,332	-71,67	
1542,334	-72,97	
1542,336	-70,39	
1542,338	-72,87	
1542,340	-72,97	
1542,342	-68,81	
1542,344	-69,68	
1542,346	-72,91	
1542,348	-72,94	
1542,350	-72,97	
1542,352	-72,81	
1542,354	-72,97	
1542,356	-72,97	
1542,358	-72,97	
1542,360	-72,97	
1542,362	-72,97	
1542,364	-72,97	
1542,366	-72,12	
1542,368	-70,99	
1542,370	-72,97	
1542,372	-70,41	
1542,374	-72,97	
1542,376	-72,97	
1542,378	-72,97	
1542,380	-72,97	
1542,382	-72,97	
1542,384	-72,97	
1542,386	-72,97	
1542,388	-72,97	
1542,390	-72,97	
1542,392	-72,44	
1542,394	-69,01	
1542,396	-71,00	
1542,398	-69,76	
1542,400	-69,66	
1542,402	-71,34	
1542,404	-70,80	
1542,406	-72,81	
1542,408	-70,42	
1542,410	-68,97	
1542,412	-72,97	
1542,414	-72,97	
1542,416	-72,97	
1542,418	-72,97	
1542,420	-72,97	
1542,422	-72,97	
1542,424	-72,97	
1542,426	-72,97	
1542,428	-70,53	
1542,430	-71,35	
1542,432	-72,97	
1542,434	-72,06	
1542,436	-72,07	
1542,438	-69,85	
1542,440	-69,92	
1542,442	-72,97	
1542,444	-72,97	
1542,446	-72,97	
1542,448	-72,97	
1542,450	-71,28	
1542,452	-72,97	
1542,454	-72,97	
1542,456	-72,97	
1542,458	-72,97	
1542,460	-71,70	
1542,462	-71,35	
1542,464	-72,06	
1542,466	-69,89	
1542,468	-68,42	
1542,470	-70,71	
1542,472	-72,97	
1542,474	-72,97	
1542,476	-72,97	
1542,478	-72,97	
1542,480	-70,66	
1542,482	-72,97	
1542,484	-72,97	
1542,486	-72,97	
1542,488	-72,97	
1542,490	-72,97	
1542,492	-72,97	
1542,494	-72,97	
1542,496	-72,97	
1542,498	-70,07	
1542,500	-68,73	
1542,502	-72,97	
1542,504	-72,97	
1542,506	-72,24	
1542,508	-72,02	
1542,510	-72,28	
1542,512	-72,97	
1542,514	-72,97	
1542,516	-72,97	
1542,518	-72,97	
1542,520	-72,97	
1542,522	-72,97	
1542,524	-72,97	
1542,526	-72,97	
1542,528	-72,97	
1542,530	-72,80	
1542,532	-68,36	
1542,534	-68,32	
1542,536	-68,26	
1542,538	-67,73	
1542,540	-71,90	
1542,542	-72,97	
1542,544	-72,97	
1542,546	-72,97	
1542,548	-71,11	
1542,550	-72,97	
1542,552	-72,97	
1542,554	-72,97	
1542,556	-69,89	
1542,558	-69,71	
1542,560	-72,38	
1542,562	-70,44	
1542,564	-72,97	
1542,566	-72,97	
1542,568	-71,10	
1542,570	-72,97	
1542,572	-72,97	
1542,574	-72,97	
1542,576	-72,97	
1542,578	-72,97	
1542,580	-72,97	
1542,582	-72,97	
1542,584	-70,57	
1542,586	-68,22	
1542,588	-71,19	
1542,590	-72,97	
1542,592	-70,93	
1542,594	-71,08	
1542,596	-72,97	
1542,598	-72,97	
1542,600	-72,97	
1542,602	-72,97	
1542,604	-69,57	
1542,606	-68,92	
1542,608	-71,87	
1542,610	-70,06	
1542,612	-72,97	
1542,614	-72,97	
1542,616	-72,97	
1542,618	-69,56	
1542,620	-68,26	
1542,622	-71,34	
1542,624	-72,97	
1542,626	-71,00	
1542,628	-70,76	
1542,630	-72,97	
1542,632	-72,97	
1542,634	-72,94	
1542,636	-72,97	
1542,638	-72,97	
1542,640	-72,97	
1542,642	-72,97	
1542,644	-72,97	
1542,646	-72,20	
1542,648	-67,90	
1542,650	-69,95	
1542,652	-72,97	
1542,654	-72,97	
1542,656	-72,97	
1542,658	-72,97	
1542,660	-72,97	
1542,662	-72,97	
1542,664	-72,97	
1542,666	-72,97	
1542,668	-72,97	
1542,670	-72,97	
1542,672	-72,97	
1542,674	-72,97	
1542,676	-71,45	
1542,678	-72,97	
1542,680	-72,47	
1542,682	-72,97	
1542,684	-72,97	
1542,686	-72,97	
1542,688	-70,08	
1542,690	-69,48	
1542,692	-69,10	
1542,694	-69,10	
1542,696	-72,97	
1542,698	-72,97	
1542,700	-72,97	
1542,702	-72,97	
1542,704	-71,82	
1542,706	-72,97	
1542,708	-70,81	
1542,710	-69,32	
1542,712	-71,34	
1542,714	-67,61	
1542,716	-72,28	
1542,718	-69,46	
1542,720	-72,97	
1542,722	-72,97	
1542,724	-71,31	
1542,726	-72,97	
1542,728	-72,97	
1542,730	-72,97	
1542,732	-72,97	
1542,734	-72,97	
1542,736	-72,97	
1542,738	-72,97	
1542,740	-72,97	
1542,742	-72,64	
1542,744	-70,36	
1542,746	-72,48	
1542,748	-72,97	
1542,750	-72,97	
1542,752	-72,97	
1542,754	-72,97	
1542,756	-72,97	
1542,758	-72,97	
1542,760	-72,97	
1542,762	-72,97	
1542,764	-72,97	
1542,766	-72,97	
1542,768	-72,97	
1542,770	-72,97	
1542,772	-72,97	
1542,774	-72,97	
1542,776	-72,97	
1542,778	-69,56	
1542,780	-70,92	
1542,782	-72,97	
1542,784	-72,97	
1542,786	-70,35	
1542,788	-72,97	
1542,790	-72,97	
1542,792	-68,03	
1542,794	-69,64	
1542,796	-72,97	
1542,798	-72,42	
1542,800	-72,97	
1542,802	-72,97	
1542,804	-70,48	
1542,806	-72,97	
1542,808	-72,97	
1542,810	-72,97	
1542,812	-68,21	
1542,814	-70,27	
1542,816	-70,93	
1542,818	-72,97	
1542,820	-72,97	
1542,822	-72,97	
1542,824	-71,44	
1542,826	-72,97	
1542,828	-72,97	
1542,830	-71,74	
1542,832	-69,22	
1542,834	-67,15	
1542,836	-70,15	
1542,838	-70,84	
1542,840	-69,91	
1542,842	-72,27	
1542,844	-72,97	
1542,846	-72,97	
1542,848	-72,97	
1542,850	-72,97	
1542,852	-71,40	
1542,854	-72,97	
1542,856	-72,97	
1542,858	-72,97	
1542,860	-72,97	
1542,862	-72,97	
1542,864	-72,18	
1542,866	-72,97	
1542,868	-72,97	
1542,870	-72,97	
1542,872	-72,97	
1542,874	-68,32	
1542,876	-67,86	
1542,878	-71,40	
1542,880	-72,97	
1542,882	-72,97	
1542,884	-69,50	
1542,886	-70,04	
1542,888	-72,89	
1542,890	-69,97	
1542,892	-72,88	
1542,894	-72,97	
1542,896	-72,97	
1542,898	-72,97	
1542,900	-72,97	
1542,902	-72,97	
1542,904	-72,97	
1542,906	-72,97	
1542,908	-72,97	
1542,910	-72,97	
1542,912	-71,60	
1542,914	-72,41	
1542,916	-72,97	
1542,918	-70,91	
1542,920	-72,91	
1542,922	-72,97	
1542,924	-70,08	
1542,926	-71,65	
1542,928	-72,97	
1542,930	-72,97	
1542,932	-72,97	
1542,934	-72,97	
1542,936	-69,52	
1542,938	-72,59	
1542,940	-72,97	
1542,942	-72,97	
1542,944	-71,36	
1542,946	-69,74	
1542,948	-70,54	
1542,950	-67,93	
1542,952	-68,83	
1542,954	-71,84	
1542,956	-72,97	
1542,958	-72,97	
1542,960	-72,97	
1542,962	-72,97	
1542,964	-72,97	
1542,966	-69,43	
1542,968	-70,77	
1542,970	-69,06	
1542,972	-69,49	
1542,974	-72,97	
1542,976	-72,97	
1542,978	-72,97	
1542,980	-69,51	
1542,982	-69,84	
1542,984	-71,30	
1542,986	-72,97	
1542,988	-72,97	
1542,990	-72,97	
1542,992	-72,97	
1542,994	-72,57	
1542,996	-72,97	
1542,998	-72,97	
1543,000	-69,26	
1543,002	-69,68	
1543,004	-71,29	
1543,006	-68,93	
1543,008	-69,26	
1543,010	-72,97	
1543,012	-72,97	
1543,014	-72,08	
1543,016	-72,97	
1543,018	-69,98	
1543,020	-72,97	
1543,022	-72,97	
1543,024	-72,97	
1543,026	-72,97	
1543,028	-72,18	
1543,030	-70,10	
1543,032	-72,97	
1543,034	-72,97	
1543,036	-72,97	
1543,038	-72,97	
1543,040	-72,97	
1543,042	-68,08	
1543,044	-71,94	
1543,046	-72,97	
1543,048	-69,48	
1543,050	-72,48	
1543,052	-72,10	
1543,054	-72,97	
1543,056	-72,97	
1543,058	-72,97	
1543,060	-72,61	
1543,062	-70,45	
1543,064	-72,59	
1543,066	-69,51	
1543,068	-72,97	
1543,070	-72,97	
1543,072	-72,97	
1543,074	-72,97	
1543,076	-72,97	
1543,078	-72,97	
1543,080	-72,97	
1543,082	-71,46	
1543,084	-70,77	
1543,086	-69,66	
1543,088	-68,10	
1543,090	-67,44	
1543,092	-70,71	
1543,094	-72,97	
1543,096	-72,97	
1543,098	-72,97	
1543,100	-72,97	
1543,102	-72,97	
1543,104	-69,33	
1543,106	-72,97	
1543,108	-72,97	
1543,110	-70,84	
1543,112	-69,72	
1543,114	-72,97	
1543,116	-72,97	
1543,118	-72,97	
1543,120	-70,82	
1543,122	-71,82	
1543,124	-72,97	
1543,126	-72,97	
1543,128	-72,97	
1543,130	-72,97	
1543,132	-72,97	
1543,134	-72,42	
1543,136	-72,97	
1543,138	-72,64	
1543,140	-70,88	
1543,142	-72,97	
1543,144	-72,97	
1543,146	-72,97	
1543,148	-72,97	
1543,150	-72,97	
1543,152	-68,87	
1543,154	-70,80	
1543,156	-72,11	
1543,158	-72,97	
1543,160	-72,97	
1543,162	-72,97	
1543,164	-72,97	
1543,166	-72,97	
1543,168	-72,97	
1543,170	-72,97	
1543,172	-72,97	
1543,174	-72,97	
1543,176	-72,97	
1543,178	-72,92	
1543,180	-72,97	
1543,182	-68,22	
1543,184	-71,88	
1543,186	-72,97	
1543,188	-72,97	
1543,190	-72,97	
1543,192	-69,62	
1543,194	-72,97	
1543,196	-72,97	
1543,198	-71,21	
1543,200	-72,97	
1543,202	-72,97	
1543,204	-71,08	
1543,206	-72,97	
1543,208	-72,97	
1543,210	-72,97	
1543,212	-72,97	
1543,214	-72,97	
1543,216	-72,97	
1543,218	-72,97	
1543,220	-72,97	
1543,222	-72,97	
1543,224	-72,97	
1543,226	-69,85	
1543,228	-69,60	
1543,230	-72,97	
1543,232	-72,97	
1543,234	-72,97	
1543,236	-72,97	
1543,238	-72,97	
1543,240	-71,32	
1543,242	-72,97	
1543,244	-72,97	
1543,246	-72,97	
1543,248	-69,73	
1543,250	-69,28	
1543,252	-69,26	
1543,254	-69,06	
1543,256	-72,14	
1543,258	-69,20	
1543,260	-70,98	
1543,262	-67,49	
1543,264	-72,62	
1543,266	-70,12	
1543,268	-72,97	
1543,270	-72,97	
1543,272	-72,97	
1543,274	-72,97	
1543,276	-72,97	
1543,278	-72,97	
1543,280	-72,97	
1543,282	-72,97	
1543,284	-72,97	
1543,286	-72,97	
1543,288	-72,97	
1543,290	-69,46	
1543,292	-71,60	
1543,294	-72,97	
1543,296	-72,97	
1543,298	-72,97	
1543,300	-72,97	
1543,302	-71,22	
1543,304	-71,65	
1543,306	-69,48	
1543,308	-70,53	
1543,310	-72,97	
1543,312	-72,97	
1543,314	-72,97	
1543,316	-72,97	
1543,318	-70,40	
1543,320	-72,37	
1543,322	-71,83	
1543,324	-69,31	
1543,326	-72,97	
1543,328	-72,97	
1543,330	-69,55	
1543,332	-72,44	
1543,334	-72,95	
1543,336	-72,97	
1543,338	-72,97	
1543,340	-72,97	
1543,342	-72,97	
1543,344	-72,97	
1543,346	-72,97	
1543,348	-72,97	
1543,350	-72,97	
1543,352	-72,97	
1543,354	-71,71	
1543,356	-68,29	
1543,358	-69,28	
1543,360	-68,97	
1543,362	-71,29	
1543,364	-72,79	
1543,366	-72,97	
1543,368	-72,97	
1543,370	-71,57	
1543,372	-72,97	
1543,374	-72,97	
1543,376	-72,97	
1543,378	-72,97	
1543,380	-72,97	
1543,382	-72,97	
1543,384	-72,97	
1543,386	-70,69	
1543,388	-71,67	
1543,390	-70,47	
1543,392	-72,97	
1543,394	-72,97	
1543,396	-72,97	
1543,398	-72,97	
1543,400	-72,97	
1543,402	-72,78	
1543,404	-70,64	
1543,406	-72,97	
1543,408	-68,66	
1543,410	-70,83	
1543,412	-72,97	
1543,414	-72,97	
1543,416	-69,99	
1543,418	-72,97	
1543,420	-72,97	
1543,422	-72,97	
1543,424	-72,40	
1543,426	-67,10	
1543,428	-72,97	
1543,430	-72,97	
1543,432	-72,97	
1543,434	-72,97	
1543,436	-72,97	
1543,438	-70,04	
1543,440	-72,97	
1543,442	-72,97	
1543,444	-72,97	
1543,446	-72,97	
1543,448	-70,93	
1543,450	-72,68	
1543,452	-70,15	
1543,454	-72,97	
1543,456	-72,97	
1543,458	-72,97	
1543,460	-72,97	
1543,462	-72,97	
1543,464	-72,97	
1543,466	-72,97	
1543,468	-72,97	
1543,470	-72,97	
1543,472	-72,06	
1543,474	-70,67	
1543,476	-68,24	
1543,478	-68,34	
1543,480	-72,97	
1543,482	-72,97	
1543,484	-72,97	
1543,486	-72,97	
1543,488	-72,97	
1543,490	-72,97	
1543,492	-72,97	
1543,494	-72,97	
1543,496	-72,97	
1543,498	-72,97	
1543,500	-71,91	
1543,502	-71,46	
1543,504	-68,41	
1543,506	-72,97	
1543,508	-72,97	
1543,510	-72,97	
1543,512	-72,97	
1543,514	-72,97	
1543,516	-72,97	
1543,518	-72,97	
1543,520	-72,97	
1543,522	-72,97	
1543,524	-69,56	
1543,526	-66,60	
1543,528	-72,97	
1543,530	-72,97	
1543,532	-72,97	
1543,534	-72,97	
1543,536	-72,00	
1543,538	-72,97	
1543,540	-71,33	
1543,542	-72,55	
1543,544	-70,46	
1543,546	-69,99	
1543,548	-72,97	
1543,550	-72,97	
1543,552	-72,97	
1543,554	-72,97	
1543,556	-70,94	
1543,558	-72,97	
1543,560	-72,97	
1543,562	-72,97	
1543,564	-72,97	
1543,566	-72,90	
1543,568	-72,97	
1543,570	-72,97	
1543,572	-72,97	
1543,574	-72,97	
1543,576	-72,97	
1543,578	-72,97	
1543,580	-72,97	
1543,582	-72,97	
1543,584	-69,40	
1543,586	-72,97	
1543,588	-72,97	
1543,590	-72,97	
1543,592	-72,97	
1543,594	-72,97	
1543,596	-72,97	
1543,598	-72,97	
1543,600	-72,97	
1543,602	-69,98	
1543,604	-66,77	
1543,606	-67,64	
1543,608	-72,57	
1543,610	-72,97	
1543,612	-72,97	
1543,614	-72,97	
1543,616	-72,97	
1543,618	-72,97	
1543,620	-72,97	
1543,622	-72,97	
1543,624	-72,97	
1543,626	-72,97	
1543,628	-67,14	
1543,630	-69,56	
1543,632	-70,79	
1543,634	-68,86	
1543,636	-72,97	
1543,638	-72,88	
1543,640	-72,86	
1543,642	-72,97	
1543,644	-72,03	
1543,646	-72,31	
1543,648	-72,97	
1543,650	-72,97	
1543,652	-72,97	
1543,654	-72,97	
1543,656	-71,52	
1543,658	-71,65	
1543,660	-72,97	
1543,662	-72,78	
1543,664	-72,97	
1543,666	-72,97	
1543,668	-72,74	
1543,670	-72,97	
1543,672	-72,97	
1543,674	-72,97	
1543,676	-72,97	
1543,678	-72,97	
1543,680	-72,97	
1543,682	-72,97	
1543,684	-72,97	
1543,686	-72,97	
1543,688	-72,97	
1543,690	-72,97	
1543,692	-72,97	
1543,694	-72,97	
1543,696	-69,77	
1543,698	-70,06	
1543,700	-72,97	
1543,702	-72,97	
1543,704	-72,43	
1543,706	-68,73	
1543,708	-68,23	
1543,710	-70,45	
1543,712	-69,40	
1543,714	-72,97	
1543,716	-72,97	
1543,718	-72,97	
1543,720	-72,97	
1543,722	-72,97	
1543,724	-72,01	
1543,726	-71,32	
1543,728	-72,97	
1543,730	-72,97	
1543,732	-69,35	
1543,734	-72,97	
1543,736	-72,97	
1543,738	-72,97	
1543,740	-70,89	
1543,742	-72,97	
1543,744	-70,10	
1543,746	-72,97	
1543,748	-72,97	
1543,750	-72,97	
1543,752	-72,97	
1543,754	-72,97	
1543,756	-72,97	
1543,758	-69,48	
1543,760	-72,97	
1543,762	-72,97	
1543,764	-70,60	
1543,766	-70,48	
1543,768	-70,28	
1543,770	-69,01	
1543,772	-70,45	
1543,774	-72,97	
1543,776	-72,97	
1543,778	-72,97	
1543,780	-72,97	
1543,782	-72,97	
1543,784	-72,97	
1543,786	-72,34	
1543,788	-72,97	
1543,790	-72,97	
1543,792	-72,97	
1543,794	-72,97	
1543,796	-72,97	
1543,798	-72,76	
1543,800	-72,97	
1543,802	-67,20	
1543,804	-67,23	
1543,806	-68,54	
1543,808	-72,97	
1543,810	-72,97	
1543,812	-72,97	
1543,814	-72,77	
1543,816	-70,54	
1543,818	-70,85	
1543,820	-72,97	
1543,822	-72,97	
1543,824	-72,97	
1543,826	-72,97	
1543,828	-72,97	
1543,830	-72,97	
1543,832	-72,97	
1543,834	-71,96	
1543,836	-72,97	
1543,838	-72,97	
1543,840	-72,26	
1543,842	-71,48	
1543,844	-67,74	
1543,846	-70,56	
1543,848	-72,65	
1543,850	-70,00	
1543,852	-72,97	
1543,854	-71,00	
1543,856	-72,97	
1543,858	-72,97	
1543,860	-72,97	
1543,862	-71,21	
1543,864	-72,97	
1543,866	-72,97	
1543,868	-72,97	
1543,870	-70,47	
1543,872	-71,54	
1543,874	-72,97	
1543,876	-72,97	
1543,878	-72,97	
1543,880	-72,97	
1543,882	-72,97	
1543,884	-72,97	
1543,886	-71,18	
1543,888	-72,97	
1543,890	-72,97	
1543,892	-72,97	
1543,894	-72,97	
1543,896	-72,97	
1543,898	-72,97	
1543,900	-66,15	
1543,902	-69,08	
1543,904	-69,14	
1543,906	-69,58	
1543,908	-72,79	
1543,910	-72,97	
1543,912	-72,97	
1543,914	-72,97	
1543,916	-72,97	
1543,918	-69,72	
1543,920	-68,82	
1543,922	-72,97	
1543,924	-72,97	
1543,926	-72,92	
1543,928	-72,97	
1543,930	-72,97	
1543,932	-72,97	
1543,934	-72,97	
1543,936	-72,97	
1543,938	-71,98	
1543,940	-72,97	
1543,942	-72,97	
1543,944	-70,73	
1543,946	-72,97	
1543,948	-72,97	
1543,950	-72,97	
1543,952	-72,97	
1543,954	-72,97	
1543,956	-72,97	
1543,958	-71,01	
1543,960	-68,42	
1543,962	-70,09	
1543,964	-72,97	
1543,966	-72,97	
1543,968	-72,69	
1543,970	-72,97	
1543,972	-72,97	
1543,974	-72,97	
1543,976	-72,97	
1543,978	-72,97	
1543,980	-72,91	
1543,982	-72,97	
1543,984	-71,41	
1543,986	-67,66	
1543,988	-68,82	
1543,990	-72,97	
1543,992	-72,97	
1543,994	-72,97	
1543,996	-72,97	
1543,998	-72,97	
1544,000	-72,97	
1544,002	-71,70	
1544,004	-70,72	
1544,006	-72,97	
1544,008	-72,96	
1544,010	-72,97	
1544,012	-72,97	
1544,014	-72,97	
1544,016	-72,97	
1544,018	-72,97	
1544,020	-72,97	
1544,022	-71,14	
1544,024	-68,37	
1544,026	-69,48	
1544,028	-71,85	
1544,030	-71,95	
1544,032	-72,97	
1544,034	-72,97	
1544,036	-72,97	
1544,038	-72,97	
1544,040	-68,61	
1544,042	-72,97	
1544,044	-72,97	
1544,046	-72,97	
1544,048	-72,97	
1544,050	-71,67	
1544,052	-70,39	
1544,054	-69,91	
1544,056	-69,52	
1544,058	-72,97	
1544,060	-72,97	
1544,062	-72,23	
1544,064	-72,97	
1544,066	-72,97	
1544,068	-72,97	
1544,070	-72,97	
1544,072	-72,97	
1544,074	-72,97	
1544,076	-72,86	
1544,078	-68,74	
1544,080	-71,34	
1544,082	-72,97	
1544,084	-72,97	
1544,086	-72,97	
1544,088	-70,13	
1544,090	-70,45	
1544,092	-72,62	
1544,094	-69,57	
1544,096	-71,13	
1544,098	-72,49	
1544,100	-69,59	
1544,102	-72,97	
1544,104	-72,97	
1544,106	-72,97	
1544,108	-72,97	
1544,110	-72,97	
1544,112	-72,97	
1544,114	-71,82	
1544,116	-72,97	
1544,118	-72,97	
1544,120	-72,97	
1544,122	-72,97	
1544,124	-69,00	
1544,126	-71,40	
1544,128	-71,75	
1544,130	-68,62	
1544,132	-71,99	
1544,134	-72,97	
1544,136	-72,97	
1544,138	-72,97	
1544,140	-71,79	
1544,142	-72,97	
1544,144	-72,97	
1544,146	-72,97	
1544,148	-72,97	
1544,150	-72,97	
1544,152	-72,45	
1544,154	-72,97	
1544,156	-69,40	
1544,158	-72,97	
1544,160	-72,97	
1544,162	-72,97	
1544,164	-72,97	
1544,166	-72,97	
1544,168	-72,97	
1544,170	-71,74	
1544,172	-72,07	
1544,174	-72,97	
1544,176	-72,06	
1544,178	-72,90	
1544,180	-72,97	
1544,182	-72,97	
1544,184	-71,85	
1544,186	-69,66	
1544,188	-72,97	
1544,190	-72,97	
1544,192	-68,30	
1544,194	-72,97	
1544,196	-72,97	
1544,198	-72,97	
1544,200	-72,97	
1544,202	-72,97	
1544,204	-72,97	
1544,206	-72,97	
1544,208	-72,97	
1544,210	-72,97	
1544,212	-70,90	
1544,214	-70,30	
1544,216	-72,87	
1544,218	-72,97	
1544,220	-70,88	
1544,222	-68,88	
1544,224	-68,74	
1544,226	-71,70	
1544,228	-72,97	
1544,230	-72,97	
1544,232	-72,97	
1544,234	-68,94	
1544,236	-72,00	
1544,238	-72,97	
1544,240	-72,97	
1544,242	-70,27	
1544,244	-72,60	
1544,246	-72,97	
1544,248	-72,97	
1544,250	-72,97	
1544,252	-68,66	
1544,254	-72,97	
1544,256	-72,97	
1544,258	-72,88	
1544,260	-72,94	
1544,262	-72,97	
1544,264	-72,97	
1544,266	-72,97	
1544,268	-72,97	
1544,270	-72,97	
1544,272	-72,40	
1544,274	-70,19	
1544,276	-70,23	
1544,278	-72,97	
1544,280	-72,97	
1544,282	-72,97	
1544,284	-72,97	
1544,286	-72,97	
1544,288	-72,97	
1544,290	-72,97	
1544,292	-72,97	
1544,294	-72,97	
1544,296	-67,91	
1544,298	-71,50	
1544,300	-68,97	
1544,302	-71,58	
1544,304	-72,97	
1544,306	-72,97	
1544,308	-72,97	
1544,310	-72,47	
1544,312	-72,97	
1544,314	-70,70	
1544,316	-72,97	
1544,318	-72,97	
1544,320	-72,97	
1544,322	-72,97	
1544,324	-68,43	
1544,326	-68,97	
1544,328	-72,51	
1544,330	-70,27	
1544,332	-70,76	
1544,334	-72,97	
1544,336	-72,97	
1544,338	-72,97	
1544,340	-72,97	
1544,342	-70,83	
1544,344	-68,46	
1544,346	-67,41	
1544,348	-69,50	
1544,350	-70,83	
1544,352	-69,51	
1544,354	-71,46	
1544,356	-72,97	
1544,358	-72,97	
1544,360	-72,97	
1544,362	-72,97	
1544,364	-71,73	
1544,366	-67,60	
1544,368	-67,61	
1544,370	-72,97	
1544,372	-69,14	
1544,374	-72,97	
1544,376	-72,97	
1544,378	-72,09	
1544,380	-72,97	
1544,382	-72,97	
1544,384	-72,97	
1544,386	-70,49	
1544,388	-72,97	
1544,390	-72,97	
1544,392	-72,97	
1544,394	-72,97	
1544,396	-72,97	
1544,398	-71,44	
1544,400	-72,97	
1544,402	-72,97	
1544,404	-72,97	
1544,406	-69,99	
1544,408	-72,97	
1544,410	-70,76	
1544,412	-69,67	
1544,414	-69,87	
1544,416	-72,97	
1544,418	-72,97	
1544,420	-72,97	
1544,422	-72,97	
1544,424	-72,97	
1544,426	-72,97	
1544,428	-72,97	
1544,430	-72,97	
1544,432	-72,97	
1544,434	-71,83	
1544,436	-71,74	
1544,438	-72,97	
1544,440	-71,99	
1544,442	-71,48	
1544,444	-72,54	
1544,446	-72,97	
1544,448	-70,31	
1544,450	-72,97	
1544,452	-72,97	
1544,454	-72,97	
1544,456	-72,97	
1544,458	-72,97	
1544,460	-72,97	
1544,462	-72,97	
1544,464	-72,97	
1544,466	-72,97	
1544,468	-72,39	
1544,470	-70,26	
1544,472	-70,23	
1544,474	-72,73	
1544,476	-70,01	
1544,478	-72,17	
1544,480	-69,30	
1544,482	-70,75	
1544,484	-72,97	
1544,486	-72,97	
1544,488	-72,97	
1544,490	-67,43	
1544,492	-71,65	
1544,494	-72,97	
1544,496	-72,97	
1544,498	-72,97	
1544,500	-72,97	
1544,502	-70,59	
1544,504	-72,97	
1544,506	-72,97	
1544,508	-72,97	
1544,510	-72,97	
1544,512	-72,97	
1544,514	-72,97	
1544,516	-72,97	
1544,518	-72,97	
1544,520	-72,97	
1544,522	-72,97	
1544,524	-72,97	
1544,526	-72,97	
1544,528	-72,97	
1544,530	-71,43	
1544,532	-72,44	
1544,534	-72,97	
1544,536	-72,97	
1544,538	-72,97	
1544,540	-72,97	
1544,542	-72,97	
1544,544	-72,97	
1544,546	-72,97	
1544,548	-72,97	
1544,550	-72,97	
1544,552	-67,69	
1544,554	-70,04	
1544,556	-69,08	
1544,558	-72,97	
1544,560	-72,64	
1544,562	-71,69	
1544,564	-70,47	
1544,566	-70,78	
1544,568	-69,99	
1544,570	-72,14	
1544,572	-71,82	
1544,574	-68,67	
1544,576	-71,07	
1544,578	-69,45	
1544,580	-72,97	
1544,582	-72,97	
1544,584	-72,97	
1544,586	-71,36	
1544,588	-72,97	
1544,590	-71,93	
1544,592	-72,97	
1544,594	-72,97	
1544,596	-72,97	
1544,598	-72,97	
1544,600	-72,97	
1544,602	-72,97	
1544,604	-72,97	
1544,606	-72,97	
1544,608	-72,97	
1544,610	-72,06	
1544,612	-72,97	
1544,614	-72,97	
1544,616	-71,52	
1544,618	-72,57	
1544,620	-72,97	
1544,622	-72,97	
1544,624	-71,45	
1544,626	-70,51	
1544,628	-72,97	
1544,630	-72,97	
1544,632	-72,97	
1544,634	-71,01	
1544,636	-71,84	
1544,638	-72,63	
1544,640	-72,97	
1544,642	-72,97	
1544,644	-71,42	
1544,646	-72,97	
1544,648	-68,98	
1544,650	-70,44	
1544,652	-72,97	
1544,654	-72,97	
1544,656	-69,91	
1544,658	-72,97	
1544,660	-72,97	
1544,662	-70,87	
1544,664	-71,41	
1544,666	-72,97	
1544,668	-72,97	
1544,670	-72,97	
1544,672	-72,97	
1544,674	-72,97	
1544,676	-72,97	
1544,678	-72,97	
1544,680	-72,97	
1544,682	-68,16	
1544,684	-72,26	
1544,686	-72,97	
1544,688	-72,97	
1544,690	-71,41	
1544,692	-68,98	
1544,694	-72,84	
1544,696	-72,97	
1544,698	-70,99	
1544,700	-72,97	
1544,702	-72,97	
1544,704	-72,03	
1544,706	-72,97	
1544,708	-70,06	
1544,710	-72,97	
1544,712	-72,97	
1544,714	-72,97	
1544,716	-72,97	
1544,718	-72,97	
1544,720	-72,97	
1544,722	-72,97	
1544,724	-68,86	
1544,726	-69,57	
1544,728	-71,99	
1544,730	-71,22	
1544,732	-68,37	
1544,734	-68,06	
1544,736	-72,97	
1544,738	-72,06	
1544,740	-72,97	
1544,742	-72,97	
1544,744	-72,97	
1544,746	-72,97	
1544,748	-72,97	
1544,750	-72,97	
1544,752	-72,97	
1544,754	-72,97	
1544,756	-72,97	
1544,758	-70,32	
1544,760	-66,22	
1544,762	-71,70	
1544,764	-69,16	
1544,766	-72,01	
1544,768	-72,97	
1544,770	-72,97	
1544,772	-72,97	
1544,774	-72,97	
1544,776	-72,97	
1544,778	-72,97	
1544,780	-72,97	
1544,782	-72,80	
1544,784	-72,97	
1544,786	-72,97	
1544,788	-72,97	
1544,790	-69,01	
1544,792	-70,35	
1544,794	-72,97	
1544,796	-72,97	
1544,798	-71,50	
1544,800	-72,97	
1544,802	-72,97	
1544,804	-72,97	
1544,806	-72,97	
1544,808	-72,97	
1544,810	-72,97	
1544,812	-69,68	
1544,814	-71,43	
1544,816	-72,97	
1544,818	-72,97	
1544,820	-72,97	
1544,822	-72,97	
1544,824	-72,97	
1544,826	-71,93	
1544,828	-70,48	
1544,830	-69,12	
1544,832	-71,43	
1544,834	-72,97	
1544,836	-72,97	
1544,838	-72,97	
1544,840	-72,97	
1544,842	-72,97	
1544,844	-72,97	
1544,846	-72,97	
1544,848	-71,25	
1544,850	-66,70	
1544,852	-67,83	
1544,854	-72,97	
1544,856	-72,97	
1544,858	-70,57	
1544,860	-70,11	
1544,862	-72,97	
1544,864	-72,97	
1544,866	-72,97	
1544,868	-72,97	
1544,870	-72,97	
1544,872	-72,97	
1544,874	-68,85	
1544,876	-71,10	
1544,878	-72,97	
1544,880	-72,97	
1544,882	-72,64	
1544,884	-68,03	
1544,886	-68,47	
1544,888	-72,71	
1544,890	-72,97	
1544,892	-70,90	
1544,894	-71,71	
1544,896	-72,97	
1544,898	-72,97	
1544,900	-72,97	
1544,902	-72,97	
1544,904	-72,00	
1544,906	-68,79	
1544,908	-72,65	
1544,910	-72,97	
1544,912	-72,97	
1544,914	-72,97	
1544,916	-72,97	
1544,918	-72,97	
1544,920	-72,97	
1544,922	-71,31	
1544,924	-72,97	
1544,926	-72,97	
1544,928	-72,97	
1544,930	-72,97	
1544,932	-72,97	
1544,934	-72,97	
1544,936	-71,19	
1544,938	-68,98	
1544,940	-72,97	
1544,942	-71,82	
1544,944	-72,97	
1544,946	-72,97	
1544,948	-72,97	
1544,950	-72,39	
1544,952	-72,97	
1544,954	-72,78	
1544,956	-72,97	
1544,958	-68,10	
1544,960	-72,97	
1544,962	-72,97	
1544,964	-70,41	
1544,966	-72,11	
1544,968	-72,97	
1544,970	-72,97	
1544,972	-72,97	
1544,974	-72,97	
1544,976	-69,40	
1544,978	-69,71	
1544,980	-72,97	
1544,982	-72,97	
1544,984	-72,97	
1544,986	-72,97	
1544,988	-72,97	
1544,990	-72,97	
1544,992	-72,97	
1544,994	-72,97	
1544,996	-72,97	
1544,998	-72,97	
1545,000	-72,97	
1545,002	-72,97	
1545,004	-72,12	
1545,006	-70,71	
1545,008	-68,45	
1545,010	-68,44	
1545,012	-70,66	
1545,014	-72,97	
1545,016	-71,96	
1545,018	-72,97	
1545,020	-72,97	
1545,022	-72,97	
1545,024	-72,97	
1545,026	-72,97	
1545,028	-72,97	
1545,030	-72,97	
1545,032	-72,97	
1545,034	-72,97	
1545,036	-72,97	
1545,038	-72,75	
1545,040	-72,97	
1545,042	-72,97	
1545,044	-72,00	
1545,046	-72,97	
1545,048	-72,97	
1545,050	-70,54	
1545,052	-72,97	
1545,054	-71,68	
1545,056	-72,32	
1545,058	-72,97	
1545,060	-71,39	
1545,062	-72,76	
1545,064	-72,97	
1545,066	-72,97	
1545,068	-72,97	
1545,070	-72,97	
1545,072	-69,60	
1545,074	-72,97	
1545,076	-72,97	
1545,078	-72,97	
1545,080	-72,97	
1545,082	-72,97	
1545,084	-72,97	
1545,086	-71,94	
1545,088	-71,53	
1545,090	-72,97	
1545,092	-72,96	
1545,094	-70,48	
1545,096	-72,97	
1545,098	-72,97	
1545,100	-72,97	
1545,102	-71,58	
1545,104	-72,97	
1545,106	-72,97	
1545,108	-72,97	
1545,110	-72,97	
1545,112	-70,83	
1545,114	-72,97	
1545,116	-70,36	
1545,118	-68,28	
1545,120	-71,16	
1545,122	-70,67	
1545,124	-69,01	
1545,126	-69,87	
1545,128	-72,97	
1545,130	-71,55	
1545,132	-69,56	
1545,134	-72,97	
1545,136	-72,97	
1545,138	-70,37	
1545,140	-72,97	
1545,142	-69,88	
1545,144	-72,97	
1545,146	-72,62	
1545,148	-69,64	
1545,150	-72,97	
1545,152	-72,97	
1545,154	-72,97	
1545,156	-69,51	
1545,158	-70,50	
1545,160	-72,97	
1545,162	-72,97	
1545,164	-72,97	
1545,166	-72,97	
1545,168	-72,97	
1545,170	-72,97	
1545,172	-72,97	
1545,174	-72,97	
1545,176	-72,97	
1545,178	-72,97	
1545,180	-69,81	
1545,182	-70,94	
1545,184	-72,74	
1545,186	-72,97	
1545,188	-72,08	
1545,190	-72,97	
1545,192	-70,74	
1545,194	-71,40	
1545,196	-70,77	
1545,198	-72,50	
1545,200	-72,97	
1545,202	-72,97	
1545,204	-72,97	
1545,206	-72,97	
1545,208	-71,66	
1545,210	-68,12	
1545,212	-72,97	
1545,214	-72,97	
1545,216	-71,74	
1545,218	-72,97	
1545,220	-72,97	
1545,222	-72,97	
1545,224	-71,32	
1545,226	-70,60	
1545,228	-68,44	
1545,230	-69,62	
1545,232	-72,97	
1545,234	-72,97	
1545,236	-72,89	
1545,238	-72,97	
1545,240	-72,97	
1545,242	-72,97	
1545,244	-70,14	
1545,246	-72,97	
1545,248	-72,97	
1545,250	-72,97	
1545,252	-72,97	
1545,254	-72,97	
1545,256	-72,97	
1545,258	-68,81	
1545,260	-68,83	
1545,262	-69,56	
1545,264	-72,97	
1545,266	-72,97	
1545,268	-72,97	
1545,270	-72,97	
1545,272	-72,97	
1545,274	-72,97	
1545,276	-72,97	
1545,278	-72,12	
1545,280	-69,32	
1545,282	-72,97	
1545,284	-72,97	
1545,286	-72,97	
1545,288	-72,97	
1545,290	-71,95	
1545,292	-72,97	
1545,294	-69,42	
1545,296	-70,91	
1545,298	-71,32	
1545,300	-72,57	
1545,302	-69,88	
1545,304	-72,97	
1545,306	-72,97	
1545,308	-72,97	
1545,310	-72,97	
1545,312	-72,97	
1545,314	-72,97	
1545,316	-72,97	
1545,318	-72,97	
1545,320	-67,62	
1545,322	-68,70	
1545,324	-72,00	
1545,326	-72,97	
1545,328	-69,39	
1545,330	-70,21	
1545,332	-72,97	
1545,334	-72,97	
1545,336	-68,45	
1545,338	-72,07	
1545,340	-72,97	
1545,342	-72,97	
1545,344	-72,95	
1545,346	-71,66	
1545,348	-71,82	
1545,350	-68,17	
1545,352	-69,73	
1545,354	-72,97	
1545,356	-72,97	
1545,358	-72,97	
1545,360	-72,97	
1545,362	-71,13	
1545,364	-72,97	
1545,366	-70,51	
1545,368	-67,95	
1545,370	-71,11	
1545,372	-69,76	
1545,374	-70,24	
1545,376	-72,97	
1545,378	-72,97	
1545,380	-72,97	
1545,382	-69,48	
1545,384	-72,97	
1545,386	-72,97	
1545,388	-72,02	
1545,390	-72,97	
1545,392	-72,61	
1545,394	-72,97	
1545,396	-71,46	
1545,398	-69,76	
1545,400	-69,75	
1545,402	-72,97	
1545,404	-72,97	
1545,406	-72,97	
1545,408	-71,48	
1545,410	-72,97	
1545,412	-72,97	
1545,414	-72,97	
1545,416	-72,97	
1545,418	-72,97	
1545,420	-72,97	
1545,422	-72,97	
1545,424	-71,49	
1545,426	-70,12	
1545,428	-72,97	
1545,430	-72,97	
1545,432	-67,78	
1545,434	-72,97	
1545,436	-72,97	
1545,438	-72,97	
1545,440	-72,97	
1545,442	-72,97	
1545,444	-72,22	
1545,446	-70,13	
1545,448	-69,92	
1545,450	-70,67	
1545,452	-72,97	
1545,454	-72,97	
1545,456	-69,41	
1545,458	-67,10	
1545,460	-68,63	
1545,462	-71,76	
1545,464	-72,97	
1545,466	-72,97	
1545,468	-72,06	
1545,470	-72,97	
1545,472	-70,11	
1545,474	-72,61	
1545,476	-70,69	
1545,478	-72,97	
1545,480	-72,97	
1545,482	-71,28	
1545,484	-72,97	
1545,486	-71,28	
1545,488	-71,87	
1545,490	-72,97	
1545,492	-72,97	
1545,494	-72,97	
1545,496	-72,97	
1545,498	-72,97	
1545,500	-72,97	
1545,502	-72,97	
1545,504	-71,96	
1545,506	-72,39	
1545,508	-72,97	
1545,510	-72,97	
1545,512	-72,97	
1545,514	-71,44	
1545,516	-72,97	
1545,518	-69,56	
1545,520	-69,09	
1545,522	-72,97	
1545,524	-72,80	
1545,526	-71,82	
1545,528	-72,97	
1545,530	-72,97	
1545,532	-72,97	
1545,534	-72,97	
1545,536	-72,97	
1545,538	-70,31	
1545,540	-72,14	
1545,542	-72,41	
1545,544	-72,97	
1545,546	-72,95	
1545,548	-72,97	
1545,550	-72,97	
1545,552	-72,42	
1545,554	-71,44	
1545,556	-68,72	
1545,558	-67,69	
1545,560	-71,06	
1545,562	-72,97	
1545,564	-72,97	
1545,566	-72,97	
1545,568	-72,97	
1545,570	-72,97	
1545,572	-71,42	
1545,574	-72,97	
1545,576	-70,86	
1545,578	-72,97	
1545,580	-69,54	
1545,582	-72,97	
1545,584	-72,97	
1545,586	-72,97	
1545,588	-72,97	
1545,590	-72,97	
1545,592	-72,97	
1545,594	-69,76	
1545,596	-72,97	
1545,598	-72,97	
1545,600	-70,59	
1545,602	-72,97	
1545,604	-72,97	
1545,606	-72,97	
1545,608	-72,97	
1545,610	-72,97	
1545,612	-72,97	
1545,614	-72,97	
1545,616	-72,97	
1545,618	-70,86	
1545,620	-70,73	
1545,622	-67,96	
1545,624	-68,77	
1545,626	-70,25	
1545,628	-72,92	
1545,630	-72,97	
1545,632	-72,97	
1545,634	-72,97	
1545,636	-72,97	
1545,638	-72,97	
1545,640	-71,14	
1545,642	-69,71	
1545,644	-71,78	
1545,646	-72,97	
1545,648	-72,97	
1545,650	-72,97	
1545,652	-72,97	
1545,654	-72,97	
1545,656	-72,97	
1545,658	-72,97	
1545,660	-72,72	
1545,662	-72,97	
1545,664	-68,43	
1545,666	-71,10	
1545,668	-71,29	
1545,670	-72,72	
1545,672	-72,97	
1545,674	-72,97	
1545,676	-72,97	
1545,678	-72,97	
1545,680	-72,97	
1545,682	-72,97	
1545,684	-71,94	
1545,686	-71,40	
1545,688	-69,25	
1545,690	-68,93	
1545,692	-66,96	
1545,694	-71,68	
1545,696	-72,97	
1545,698	-72,97	
1545,700	-72,97	
1545,702	-72,97	
1545,704	-72,97	
1545,706	-72,38	
1545,708	-68,07	
1545,710	-71,69	
1545,712	-72,97	
1545,714	-72,97	
1545,716	-72,97	
1545,718	-72,97	
1545,720	-72,97	
1545,722	-72,97	
1545,724	-72,97	
1545,726	-72,91	
1545,728	-72,97	
1545,730	-71,95	
1545,732	-69,67	
1545,734	-69,49	
1545,736	-71,87	
1545,738	-72,97	
1545,740	-72,97	
1545,742	-72,97	
1545,744	-72,76	
1545,746	-72,97	
1545,748	-72,97	
1545,750	-68,68	
1545,752	-71,92	
1545,754	-72,97	
1545,756	-72,97	
1545,758	-72,97	
1545,760	-72,97	
1545,762	-70,69	
1545,764	-69,67	
1545,766	-70,97	
1545,768	-68,76	
1545,770	-71,86	
1545,772	-72,97	
1545,774	-69,68	
1545,776	-72,97	
1545,778	-71,10	
1545,780	-72,97	
1545,782	-72,97	
1545,784	-72,97	
1545,786	-72,97	
1545,788	-72,97	
1545,790	-72,97	
1545,792	-72,26	
1545,794	-72,51	
1545,796	-72,97	
1545,798	-71,24	
1545,800	-70,56	
1545,802	-72,97	
1545,804	-70,41	
1545,806	-67,97	
1545,808	-72,97	
1545,810	-72,97	
1545,812	-72,97	
1545,814	-69,41	
1545,816	-72,97	
1545,818	-72,97	
1545,820	-70,56	
1545,822	-69,93	
1545,824	-70,21	
1545,826	-71,38	
1545,828	-72,97	
1545,830	-72,97	
1545,832	-72,97	
1545,834	-72,97	
1545,836	-72,97	
1545,838	-69,71	
1545,840	-72,97	
1545,842	-72,97	
1545,844	-72,97	
1545,846	-72,67	
1545,848	-71,80	
1545,850	-72,97	
1545,852	-72,72	
1545,854	-72,97	
1545,856	-72,97	
1545,858	-72,97	
1545,860	-71,46	
1545,862	-72,97	
1545,864	-72,97	
1545,866	-72,97	
1545,868	-72,97	
1545,870	-72,97	
1545,872	-72,97	
1545,874	-72,97	
1545,876	-72,97	
1545,878	-72,97	
1545,880	-70,33	
1545,882	-67,14	
1545,884	-72,70	
1545,886	-72,97	
1545,888	-72,97	
1545,890	-72,97	
1545,892	-72,97	
1545,894	-72,15	
1545,896	-70,22	
1545,898	-72,97	
1545,900	-72,97	
1545,902	-72,97	
1545,904	-72,97	
1545,906	-72,97	
1545,908	-72,97	
1545,910	-72,49	
1545,912	-72,97	
1545,914	-72,97	
1545,916	-70,96	
1545,918	-72,97	
1545,920	-72,97	
1545,922	-72,97	
1545,924	-72,97	
1545,926	-72,97	
1545,928	-72,97	
1545,930	-70,20	
1545,932	-70,12	
1545,934	-72,97	
1545,936	-72,97	
1545,938	-72,97	
1545,940	-72,97	
1545,942	-72,97	
1545,944	-72,97	
1545,946	-72,97	
1545,948	-72,97	
1545,950	-71,04	
1545,952	-70,25	
1545,954	-69,37	
1545,956	-68,45	
1545,958	-71,43	
1545,960	-72,97	
1545,962	-72,97	
1545,964	-70,85	
1545,966	-71,61	
1545,968	-68,90	
1545,970	-69,62	
1545,972	-72,97	
1545,974	-72,97	
1545,976	-72,97	
1545,978	-72,97	
1545,980	-72,97	
1545,982	-72,97	
1545,984	-72,97	
1545,986	-71,64	
1545,988	-72,97	
1545,990	-72,97	
1545,992	-68,67	
1545,994	-68,32	
1545,996	-72,76	
1545,998	-72,97	
1546,000	-72,97	
1546,002	-72,97	
1546,004	-72,97	
1546,006	-72,97	
1546,008	-72,97	
1546,010	-72,58	
1546,012	-72,97	
1546,014	-71,20	
1546,016	-69,87	
1546,018	-71,49	
1546,020	-71,01	
1546,022	-72,43	
1546,024	-72,97	
1546,026	-72,97	
1546,028	-72,97	
1546,030	-72,97	
1546,032	-72,97	
1546,034	-68,27	
1546,036	-71,31	
1546,038	-70,61	
1546,040	-71,16	
1546,042	-72,48	
1546,044	-72,04	
1546,046	-71,26	
1546,048	-72,97	
1546,050	-72,97	
1546,052	-72,97	
1546,054	-72,97	
1546,056	-70,55	
1546,058	-72,97	
1546,060	-72,97	
1546,062	-72,79	
1546,064	-72,17	
1546,066	-72,10	
1546,068	-72,97	
1546,070	-72,97	
1546,072	-72,97	
1546,074	-72,97	
1546,076	-72,97	
1546,078	-72,97	
1546,080	-72,97	
1546,082	-72,97	
1546,084	-72,00	
1546,086	-70,25	
1546,088	-72,19	
1546,090	-71,72	
1546,092	-72,97	
1546,094	-72,97	
1546,096	-72,97	
1546,098	-72,97	
1546,100	-72,97	
1546,102	-67,13	
1546,104	-68,04	
1546,106	-69,86	
1546,108	-72,97	
1546,110	-72,97	
1546,112	-72,97	
1546,114	-72,96	
1546,116	-70,23	
1546,118	-69,00	
1546,120	-72,97	
1546,122	-71,52	
1546,124	-69,57	
1546,126	-72,97	
1546,128	-72,97	
1546,130	-72,97	
1546,132	-72,97	
1546,134	-72,97	
1546,136	-72,97	
1546,138	-71,33	
1546,140	-67,15	
1546,142	-69,04	
1546,144	-71,67	
1546,146	-72,97	
1546,148	-72,97	
1546,150	-72,97	
1546,152	-72,97	
1546,154	-71,72	
1546,156	-68,12	
1546,158	-68,37	
1546,160	-72,97	
1546,162	-72,97	
1546,164	-72,97	
1546,166	-72,97	
1546,168	-72,97	
1546,170	-72,61	
1546,172	-72,74	
1546,174	-72,97	
1546,176	-72,97	
1546,178	-72,97	
1546,180	-71,45	
1546,182	-69,31	
1546,184	-71,03	
1546,186	-72,30	
1546,188	-70,27	
1546,190	-72,97	
1546,192	-72,97	
1546,194	-72,48	
1546,196	-72,97	
1546,198	-72,97	
1546,200	-72,97	
1546,202	-72,97	
1546,204	-72,97	
1546,206	-72,97	
1546,208	-72,97	
1546,210	-72,97	
1546,212	-71,02	
1546,214	-69,76	
1546,216	-71,47	
1546,218	-72,97	
1546,220	-72,97	
1546,222	-72,97	
1546,224	-72,97	
1546,226	-72,97	
1546,228	-72,97	
1546,230	-72,97	
1546,232	-67,01	
1546,234	-66,45	
1546,236	-69,52	
1546,238	-72,97	
1546,240	-72,44	
1546,242	-72,94	
1546,244	-72,97	
1546,246	-72,97	
1546,248	-72,97	
1546,250	-72,97	
1546,252	-72,97	
1546,254	-72,97	
1546,256	-72,97	
1546,258	-72,05	
1546,260	-71,15	
1546,262	-69,88	
1546,264	-70,25	
1546,266	-72,97	
1546,268	-72,97	
1546,270	-72,97	
1546,272	-72,97	
1546,274	-72,97	
1546,276	-72,97	
1546,278	-72,97	
1546,280	-72,97	
1546,282	-72,97	
1546,284	-72,97	
1546,286	-68,85	
1546,288	-72,97	
1546,290	-72,97	
1546,292	-68,84	
1546,294	-71,09	
1546,296	-71,31	
1546,298	-72,97	
1546,300	-72,97	
1546,302	-72,97	
1546,304	-72,97	
1546,306	-72,97	
1546,308	-72,97	
1546,310	-72,97	
1546,312	-72,97	
1546,314	-72,62	
1546,316	-72,97	
1546,318	-69,74	
1546,320	-72,97	
1546,322	-72,97	
1546,324	-72,97	
1546,326	-68,43	
1546,328	-66,66	
1546,330	-71,29	
1546,332	-72,97	
1546,334	-72,97	
1546,336	-72,97	
1546,338	-72,97	
1546,340	-72,97	
1546,342	-70,66	
1546,344	-70,70	
1546,346	-72,97	
1546,348	-72,97	
1546,350	-72,97	
1546,352	-72,55	
1546,354	-72,97	
1546,356	-72,97	
1546,358	-69,20	
1546,360	-72,97	
1546,362	-71,75	
1546,364	-70,38	
1546,366	-71,23	
1546,368	-72,97	
1546,370	-72,97	
1546,372	-72,97	
1546,374	-72,97	
1546,376	-70,85	
1546,378	-72,97	
1546,380	-72,97	
1546,382	-69,11	
1546,384	-71,75	
1546,386	-69,89	
1546,388	-70,65	
1546,390	-72,49	
1546,392	-72,97	
1546,394	-72,97	
1546,396	-72,97	
1546,398	-72,97	
1546,400	-69,97	
1546,402	-71,79	
1546,404	-70,20	
1546,406	-72,40	
1546,408	-72,97	
1546,410	-72,97	
1546,412	-72,97	
1546,414	-70,16	
1546,416	-69,57	
1546,418	-70,88	
1546,420	-72,97	
1546,422	-72,97	
1546,424	-72,97	
1546,426	-72,97	
1546,428	-72,97	
1546,430	-72,97	
1546,432	-71,81	
1546,434	-72,62	
1546,436	-72,97	
1546,438	-72,97	
1546,440	-72,97	
1546,442	-72,97	
1546,444	-71,20	
1546,446	-72,35	
1546,448	-72,97	
1546,450	-72,97	
1546,452	-72,97	
1546,454	-72,97	
1546,456	-72,97	
1546,458	-70,77	
1546,460	-72,39	
1546,462	-72,97	
1546,464	-72,97	
1546,466	-72,97	
1546,468	-72,97	
1546,470	-72,80	
1546,472	-72,97	
1546,474	-70,97	
1546,476	-72,97	
1546,478	-72,97	
1546,480	-72,97	
1546,482	-72,60	
1546,484	-69,64	
1546,486	-72,97	
1546,488	-72,97	
1546,490	-72,97	
1546,492	-72,53	
1546,494	-69,28	
1546,496	-71,14	
1546,498	-72,97	
1546,500	-72,97	
1546,502	-72,97	
1546,504	-72,97	
1546,506	-71,92	
1546,508	-72,69	
1546,510	-72,97	
1546,512	-69,34	
1546,514	-72,97	
1546,516	-72,97	
1546,518	-71,60	
1546,520	-70,23	
1546,522	-67,60	
1546,524	-71,15	
1546,526	-71,18	
1546,528	-72,97	
1546,530	-72,97	
1546,532	-72,32	
1546,534	-70,42	
1546,536	-72,97	
1546,538	-70,94	
1546,540	-69,21	
1546,542	-72,97	
1546,544	-72,97	
1546,546	-72,97	
1546,548	-72,97	
1546,550	-72,97	
1546,552	-70,26	
1546,554	-70,75	
1546,556	-70,18	
1546,558	-69,60	
1546,560	-70,83	
1546,562	-72,97	
1546,564	-72,97	
1546,566	-72,42	
1546,568	-72,97	
1546,570	-72,97	
1546,572	-72,97	
1546,574	-72,97	
1546,576	-72,97	
1546,578	-72,97	
1546,580	-72,82	
1546,582	-72,97	
1546,584	-72,97	
1546,586	-72,97	
1546,588	-69,27	
1546,590	-69,46	
1546,592	-72,97	
1546,594	-72,97	
1546,596	-72,97	
1546,598	-72,97	
1546,600	-72,97	
1546,602	-72,97	
1546,604	-72,97	
1546,606	-72,49	
1546,608	-72,37	
1546,610	-69,52	
1546,612	-67,17	
1546,614	-70,12	
1546,616	-72,97	
1546,618	-72,97	
1546,620	-72,97	
1546,622	-68,61	
1546,624	-72,53	
1546,626	-72,97	
1546,628	-72,97	
1546,630	-72,97	
1546,632	-72,97	
1546,634	-72,97	
1546,636	-72,97	
1546,638	-72,97	
1546,640	-72,97	
1546,642	-70,99	
1546,644	-72,97	
1546,646	-72,97	
1546,648	-67,20	
1546,650	-69,43	
1546,652	-70,47	
1546,654	-70,17	
1546,656	-71,27	
1546,658	-72,97	
1546,660	-72,97	
1546,662	-72,41	
1546,664	-72,97	
1546,666	-72,97	
1546,668	-72,97	
1546,670	-72,14	
1546,672	-72,97	
1546,674	-72,97	
1546,676	-72,97	
1546,678	-71,97	
1546,680	-70,48	
1546,682	-72,97	
1546,684	-72,97	
1546,686	-72,97	
1546,688	-72,97	
1546,690	-70,78	
1546,692	-70,46	
1546,694	-69,42	
1546,696	-72,97	
1546,698	-70,29	
1546,700	-72,97	
1546,702	-72,97	
1546,704	-72,97	
1546,706	-68,04	
1546,708	-71,09	
1546,710	-72,97	
1546,712	-72,97	
1546,714	-72,97	
1546,716	-71,19	
1546,718	-70,01	
1546,720	-67,61	
1546,722	-68,50	
1546,724	-69,53	
1546,726	-72,76	
1546,728	-72,97	
1546,730	-70,61	
1546,732	-72,44	
1546,734	-72,97	
1546,736	-72,97	
1546,738	-72,97	
1546,740	-72,97	
1546,742	-71,55	
1546,744	-69,62	
1546,746	-69,26	
1546,748	-72,97	
1546,750	-72,97	
1546,752	-72,78	
1546,754	-72,97	
1546,756	-72,97	
1546,758	-72,97	
1546,760	-72,97	
1546,762	-69,85	
1546,764	-72,97	
1546,766	-72,97	
1546,768	-72,97	
1546,770	-72,97	
1546,772	-72,97	
1546,774	-72,97	
1546,776	-72,97	
1546,778	-72,97	
1546,780	-68,88	
1546,782	-72,97	
1546,784	-72,97	
1546,786	-72,97	
1546,788	-72,95	
1546,790	-69,84	
1546,792	-72,97	
1546,794	-72,97	
1546,796	-72,97	
1546,798	-72,97	
1546,800	-70,66	
1546,802	-72,97	
1546,804	-72,97	
1546,806	-72,97	
1546,808	-72,97	
1546,810	-72,97	
1546,812	-72,97	
1546,814	-72,97	
1546,816	-72,97	
1546,818	-72,30	
1546,820	-72,60	
1546,822	-72,97	
1546,824	-70,05	
1546,826	-67,04	
1546,828	-72,97	
1546,830	-72,97	
1546,832	-69,47	
1546,834	-72,62	
1546,836	-72,97	
1546,838	-72,94	
1546,840	-72,97	
1546,842	-72,97	
1546,844	-70,56	
1546,846	-72,97	
1546,848	-72,86	
1546,850	-70,88	
1546,852	-71,61	
1546,854	-72,97	
1546,856	-72,97	
1546,858	-72,97	
1546,860	-72,97	
1546,862	-72,97	
1546,864	-69,58	
1546,866	-72,97	
1546,868	-72,97	
1546,870	-67,61	
1546,872	-66,62	
1546,874	-69,31	
1546,876	-71,21	
1546,878	-71,55	
1546,880	-72,97	
1546,882	-72,97	
1546,884	-72,97	
1546,886	-72,97	
1546,888	-72,97	
1546,890	-72,97	
1546,892	-72,97	
1546,894	-72,97	
1546,896	-72,97	
1546,898	-70,57	
1546,900	-71,68	
1546,902	-72,97	
1546,904	-72,97	
1546,906	-72,97	
1546,908	-72,97	
1546,910	-72,97	
1546,912	-72,97	
1546,914	-72,97	
1546,916	-70,34	
1546,918	-70,81	
1546,920	-72,97	
1546,922	-72,97	
1546,924	-69,56	
1546,926	-67,06	
1546,928	-70,81	
1546,930	-69,93	
1546,932	-72,97	
1546,934	-72,97	
1546,936	-72,97	
1546,938	-71,63	
1546,940	-69,32	
1546,942	-71,12	
1546,944	-72,97	
1546,946	-72,97	
1546,948	-72,97	
1546,950	-72,97	
1546,952	-72,97	
1546,954	-72,97	
1546,956	-69,94	
1546,958	-72,97	
1546,960	-72,97	
1546,962	-71,28	
1546,964	-72,97	
1546,966	-72,97	
1546,968	-72,97	
1546,970	-68,69	
1546,972	-72,13	
1546,974	-68,45	
1546,976	-69,67	
1546,978	-72,77	
1546,980	-72,97	
1546,982	-72,97	
1546,984	-72,97	
1546,986	-72,97	
1546,988	-72,97	
1546,990	-72,97	
1546,992	-72,97	
1546,994	-72,97	
1546,996	-69,19	
1546,998	-68,63	
1547,000	-72,97	
1547,002	-71,01	
1547,004	-72,97	
1547,006	-72,97	
1547,008	-71,29	
1547,010	-72,97	
1547,012	-72,97	
1547,014	-71,20	
1547,016	-71,69	
1547,018	-72,29	
1547,020	-72,97	
1547,022	-72,97	
1547,024	-72,97	
1547,026	-71,46	
1547,028	-72,97	
1547,030	-70,57	
1547,032	-72,75	
1547,034	-70,05	
1547,036	-72,97	
1547,038	-72,97	
1547,040	-69,67	
1547,042	-70,03	
1547,044	-72,97	
1547,046	-72,97	
1547,048	-72,97	
1547,050	-72,97	
1547,052	-71,49	
1547,054	-71,94	
1547,056	-72,97	
1547,058	-72,50	
1547,060	-70,33	
1547,062	-69,18	
1547,064	-70,04	
1547,066	-67,67	
1547,068	-66,74	
1547,070	-70,92	
1547,072	-72,97	
1547,074	-72,97	
1547,076	-72,97	
1547,078	-72,97	
1547,080	-72,97	
1547,082	-72,97	
1547,084	-69,95	
1547,086	-68,46	
1547,088	-70,43	
1547,090	-72,97	
1547,092	-72,53	
1547,094	-69,93	
1547,096	-70,72	
1547,098	-72,66	
1547,100	-72,97	
1547,102	-72,97	
1547,104	-72,97	
1547,106	-72,97	
1547,108	-69,67	
1547,110	-72,06	
1547,112	-72,97	
1547,114	-72,97	
1547,116	-72,97	
1547,118	-72,97	
1547,120	-72,97	
1547,122	-72,97	
1547,124	-70,71	
1547,126	-70,74	
1547,128	-72,97	
1547,130	-71,58	
1547,132	-72,97	
1547,134	-72,40	
1547,136	-72,97	
1547,138	-69,07	
1547,140	-70,10	
1547,142	-72,97	
1547,144	-72,97	
1547,146	-72,97	
1547,148	-72,97	
1547,150	-72,97	
1547,152	-72,97	
1547,154	-72,97	
1547,156	-72,97	
1547,158	-69,97	
1547,160	-66,89	
1547,162	-67,64	
1547,164	-68,79	
1547,166	-72,31	
1547,168	-72,97	
1547,170	-72,97	
1547,172	-72,97	
1547,174	-72,97	
1547,176	-70,50	
1547,178	-71,00	
1547,180	-72,97	
1547,182	-72,97	
1547,184	-72,97	
1547,186	-72,97	
1547,188	-69,91	
1547,190	-72,97	
1547,192	-72,97	
1547,194	-72,37	
1547,196	-72,97	
1547,198	-72,97	
1547,200	-72,97	
1547,202	-69,88	
1547,204	-69,52	
1547,206	-72,97	
1547,208	-72,97	
1547,210	-72,97	
1547,212	-72,97	
1547,214	-72,97	
1547,216	-72,97	
1547,218	-72,71	
1547,220	-69,21	
1547,222	-69,97	
1547,224	-72,97	
1547,226	-72,97	
1547,228	-72,97	
1547,230	-72,97	
1547,232	-72,97	
1547,234	-71,51	
1547,236	-72,97	
1547,238	-72,97	
1547,240	-72,46	
1547,242	-72,97	
1547,244	-71,52	
1547,246	-72,97	
1547,248	-72,97	
1547,250	-72,97	
1547,252	-72,97	
1547,254	-72,97	
1547,256	-72,97	
1547,258	-72,97	
1547,260	-72,97	
1547,262	-70,83	
1547,264	-68,14	
1547,266	-71,51	
1547,268	-68,79	
1547,270	-72,97	
1547,272	-72,97	
1547,274	-72,97	
1547,276	-72,97	
1547,278	-72,97	
1547,280	-69,30	
1547,282	-72,77	
1547,284	-72,38	
1547,286	-72,97	
1547,288	-69,57	
1547,290	-71,08	
1547,292	-67,80	
1547,294	-68,45	
1547,296	-69,47	
1547,298	-68,08	
1547,300	-67,90	
1547,302	-72,97	
1547,304	-72,58	
1547,306	-72,97	
1547,308	-72,97	
1547,310	-72,97	
1547,312	-72,79	
1547,314	-72,01	
1547,316	-72,97	
1547,318	-72,97	
1547,320	-72,28	
1547,322	-72,97	
1547,324	-70,85	
1547,326	-66,34	
1547,328	-72,97	
1547,330	-72,06	
1547,332	-70,95	
1547,334	-67,20	
1547,336	-68,77	
1547,338	-70,69	
1547,340	-72,97	
1547,342	-72,97	
1547,344	-72,97	
1547,346	-72,97	
1547,348	-72,97	
1547,350	-72,14	
1547,352	-72,97	
1547,354	-72,97	
1547,356	-72,97	
1547,358	-72,97	
1547,360	-72,97	
1547,362	-72,97	
1547,364	-72,97	
1547,366	-72,97	
1547,368	-72,85	
1547,370	-70,78	
1547,372	-72,97	
1547,374	-72,97	
1547,376	-72,06	
1547,378	-72,97	
1547,380	-72,97	
1547,382	-72,97	
1547,384	-71,65	
1547,386	-72,97	
1547,388	-70,99	
1547,390	-72,63	
1547,392	-72,97	
1547,394	-72,49	
1547,396	-68,61	
1547,398	-70,15	
1547,400	-72,90	
1547,402	-72,97	
1547,404	-67,83	
1547,406	-69,32	
1547,408	-72,97	
1547,410	-68,21	
1547,412	-71,98	
1547,414	-69,48	
1547,416	-72,97	
1547,418	-72,97	
1547,420	-69,85	
1547,422	-71,00	
1547,424	-72,85	
1547,426	-71,43	
1547,428	-72,97	
1547,430	-70,95	
1547,432	-72,15	
1547,434	-69,70	
1547,436	-72,97	
1547,438	-72,97	
1547,440	-72,97	
1547,442	-71,74	
1547,444	-70,03	
1547,446	-69,89	
1547,448	-72,68	
1547,450	-72,97	
1547,452	-72,97	
1547,454	-72,97	
1547,456	-72,97	
1547,458	-72,42	
1547,460	-66,02	
1547,462	-67,89	
1547,464	-69,51	
1547,466	-72,69	
1547,468	-72,97	
1547,470	-72,97	
1547,472	-70,03	
1547,474	-71,63	
1547,476	-72,97	
1547,478	-71,35	
1547,480	-69,85	
1547,482	-72,97	
1547,484	-72,84	
1547,486	-72,97	
1547,488	-72,97	
1547,490	-71,98	
1547,492	-72,97	
1547,494	-72,97	
1547,496	-72,97	
1547,498	-72,97	
1547,500	-72,97	
1547,502	-72,97	
1547,504	-67,28	
1547,506	-72,97	
1547,508	-72,97	
1547,510	-72,97	
1547,512	-72,97	
1547,514	-72,33	
1547,516	-68,84	
1547,518	-72,97	
1547,520	-72,97	
1547,522	-72,97	
1547,524	-72,97	
1547,526	-72,97	
1547,528	-72,97	
1547,530	-71,08	
1547,532	-72,97	
1547,534	-72,97	
1547,536	-72,97	
1547,538	-72,97	
1547,540	-72,97	
1547,542	-67,90	
1547,544	-67,46	
1547,546	-72,97	
1547,548	-72,97	
1547,550	-72,97	
1547,552	-72,97	
1547,554	-72,97	
1547,556	-71,33	
1547,558	-72,97	
1547,560	-70,17	
1547,562	-69,93	
1547,564	-71,93	
1547,566	-72,97	
1547,568	-72,97	
1547,570	-72,97	
1547,572	-72,97	
1547,574	-72,97	
1547,576	-69,10	
1547,578	-70,35	
1547,580	-72,97	
1547,582	-72,97	
1547,584	-72,97	
1547,586	-72,97	
1547,588	-72,97	
1547,590	-71,10	
1547,592	-68,31	
1547,594	-67,89	
1547,596	-69,45	
1547,598	-70,57	
1547,600	-72,97	
1547,602	-72,10	
1547,604	-72,97	
1547,606	-72,97	
1547,608	-72,97	
1547,610	-72,97	
1547,612	-72,97	
1547,614	-72,97	
1547,616	-72,97	
1547,618	-72,97	
1547,620	-72,97	
1547,622	-72,97	
1547,624	-72,97	
1547,626	-72,97	
1547,628	-72,41	
1547,630	-72,97	
1547,632	-72,97	
1547,634	-72,97	
1547,636	-72,97	
1547,638	-72,97	
1547,640	-72,97	
1547,642	-70,44	
1547,644	-72,97	
1547,646	-72,97	
1547,648	-68,18	
1547,650	-72,97	
1547,652	-72,97	
1547,654	-72,97	
1547,656	-72,97	
1547,658	-70,09	
1547,660	-72,97	
1547,662	-72,97	
1547,664	-72,57	
1547,666	-72,19	
1547,668	-72,97	
1547,670	-72,97	
1547,672	-72,97	
1547,674	-72,97	
1547,676	-72,01	
1547,678	-71,42	
1547,680	-71,23	
1547,682	-72,97	
1547,684	-72,62	
1547,686	-68,66	
1547,688	-72,97	
1547,690	-72,97	
1547,692	-72,97	
1547,694	-72,97	
1547,696	-72,40	
1547,698	-72,03	
1547,700	-72,97	
1547,702	-70,35	
1547,704	-69,77	
1547,706	-72,61	
1547,708	-71,92	
1547,710	-70,74	
1547,712	-69,64	
1547,714	-71,26	
1547,716	-72,97	
1547,718	-72,97	
1547,720	-72,97	
1547,722	-69,39	
1547,724	-68,79	
1547,726	-72,97	
1547,728	-72,97	
1547,730	-72,97	
1547,732	-72,97	
1547,734	-71,69	
1547,736	-67,64	
1547,738	-72,97	
1547,740	-72,97	
1547,742	-72,12	
1547,744	-72,97	
1547,746	-68,86	
1547,748	-72,97	
1547,750	-72,53	
1547,752	-72,97	
1547,754	-72,97	
1547,756	-72,97	
1547,758	-72,97	
1547,760	-72,97	
1547,762	-70,40	
1547,764	-72,97	
1547,766	-72,97	
1547,768	-72,97	
1547,770	-72,97	
1547,772	-72,97	
1547,774	-72,97	
1547,776	-70,57	
1547,778	-68,17	
1547,780	-68,31	
1547,782	-72,97	
1547,784	-72,97	
1547,786	-72,97	
1547,788	-72,97	
1547,790	-71,98	
1547,792	-72,97	
1547,794	-71,51	
1547,796	-72,97	
1547,798	-72,66	
1547,800	-70,52	
1547,802	-72,67	
1547,804	-70,03	
1547,806	-68,91	
1547,808	-68,62	
1547,810	-70,69	
1547,812	-69,73	
1547,814	-69,81	
1547,816	-72,97	
1547,818	-67,97	
1547,820	-67,62	
1547,822	-69,63	
1547,824	-72,97	
1547,826	-72,97	
1547,828	-72,97	
1547,830	-72,97	
1547,832	-72,97	
1547,834	-72,82	
1547,836	-70,52	
1547,838	-70,68	
1547,840	-72,97	
1547,842	-72,91	
1547,844	-72,59	
1547,846	-70,35	
1547,848	-70,97	
1547,850	-69,63	
1547,852	-71,82	
1547,854	-72,97	
1547,856	-72,97	
1547,858	-72,97	
1547,860	-72,97	
1547,862	-72,97	
1547,864	-72,97	
1547,866	-72,97	
1547,868	-69,86	
1547,870	-68,54	
1547,872	-67,55	
1547,874	-69,36	
1547,876	-72,10	
1547,878	-72,97	
1547,880	-72,97	
1547,882	-72,51	
1547,884	-71,95	
1547,886	-71,46	
1547,888	-72,97	
1547,890	-72,16	
1547,892	-68,64	
1547,894	-67,92	
1547,896	-70,58	
1547,898	-72,97	
1547,900	-72,97	
1547,902	-72,97	
1547,904	-70,47	
1547,906	-70,62	
1547,908	-72,97	
1547,910	-72,97	
1547,912	-72,97	
1547,914	-72,97	
1547,916	-71,30	
1547,918	-71,39	
1547,920	-72,97	
1547,922	-72,97	
1547,924	-72,97	
1547,926	-72,97	
1547,928	-72,97	
1547,930	-72,97	
1547,932	-72,74	
1547,934	-72,97	
1547,936	-72,97	
1547,938	-72,97	
1547,940	-70,89	
1547,942	-71,94	
1547,944	-72,97	
1547,946	-72,97	
1547,948	-72,97	
1547,950	-72,97	
1547,952	-70,01	
1547,954	-72,97	
1547,956	-72,97	
1547,958	-69,84	
1547,960	-68,83	
1547,962	-72,97	
1547,964	-72,97	
1547,966	-72,27	
1547,968	-68,94	
1547,970	-70,60	
1547,972	-72,97	
1547,974	-72,97	
1547,976	-72,97	
1547,978	-72,97	
1547,980	-72,97	
1547,982	-72,97	
1547,984	-72,97	
1547,986	-72,86	
1547,988	-72,07	
1547,990	-72,97	
1547,992	-72,97	
1547,994	-72,97	
1547,996	-72,97	
1547,998	-72,97	
1548,000	-72,97	
1548,002	-72,97	
1548,004	-72,97	
1548,006	-72,97	
1548,008	-72,79	
1548,010	-71,92	
1548,012	-71,92	
1548,014	-72,97	
1548,016	-72,76	
1548,018	-72,97	
1548,020	-72,97	
1548,022	-71,36	
1548,024	-72,97	
1548,026	-72,97	
1548,028	-72,97	
1548,030	-72,97	
1548,032	-71,92	
1548,034	-72,97	
1548,036	-72,97	
1548,038	-72,97	
1548,040	-72,20	
1548,042	-72,97	
1548,044	-69,16	
1548,046	-72,05	
1548,048	-72,97	
1548,050	-72,97	
1548,052	-71,30	
1548,054	-72,97	
1548,056	-72,97	
1548,058	-72,97	
1548,060	-68,00	
1548,062	-68,50	
1548,064	-72,95	
1548,066	-72,97	
1548,068	-72,97	
1548,070	-72,97	
1548,072	-72,97	
1548,074	-72,97	
1548,076	-72,97	
1548,078	-72,97	
1548,080	-72,22	
1548,082	-70,50	
1548,084	-71,27	
1548,086	-72,97	
1548,088	-72,97	
1548,090	-72,97	
1548,092	-71,47	
1548,094	-68,72	
1548,096	-72,97	
1548,098	-72,97	
1548,100	-72,97	
1548,102	-72,97	
1548,104	-72,97	
1548,106	-72,44	
1548,108	-69,48	
1548,110	-70,54	
1548,112	-72,97	
1548,114	-72,97	
1548,116	-72,97	
1548,118	-72,97	
1548,120	-72,97	
1548,122	-72,97	
1548,124	-72,97	
1548,126	-71,97	
1548,128	-69,89	
1548,130	-72,97	
1548,132	-70,65	
1548,134	-67,18	
1548,136	-72,62	
1548,138	-72,97	
1548,140	-72,97	
1548,142	-72,97	
1548,144	-72,97	
1548,146	-72,51	
1548,148	-70,46	
1548,150	-71,33	
1548,152	-72,97	
1548,154	-72,97	
1548,156	-72,97	
1548,158	-72,82	
1548,160	-72,81	
1548,162	-72,97	
1548,164	-72,97	
1548,166	-72,97	
1548,168	-69,48	
1548,170	-72,97	
1548,172	-72,97	
1548,174	-68,93	
1548,176	-69,84	
1548,178	-71,53	
1548,180	-72,97	
1548,182	-72,97	
1548,184	-68,19	
1548,186	-72,97	
1548,188	-72,97	
1548,190	-71,42	
1548,192	-70,46	
1548,194	-72,94	
1548,196	-72,97	
1548,198	-72,97	
1548,200	-72,97	
1548,202	-72,97	
1548,204	-72,97	
1548,206	-72,64	
1548,208	-69,55	
1548,210	-72,97	
1548,212	-72,97	
1548,214	-72,97	
1548,216	-72,79	
1548,218	-72,33	
1548,220	-72,97	
1548,222	-72,97	
1548,224	-69,70	
1548,226	-67,09	
1548,228	-71,65	
1548,230	-72,55	
1548,232	-70,57	
1548,234	-72,04	
1548,236	-72,97	
1548,238	-72,97	
1548,240	-72,97	
1548,242	-72,97	
1548,244	-72,97	
1548,246	-72,97	
1548,248	-72,97	
1548,250	-72,97	
1548,252	-71,81	
1548,254	-72,75	
1548,256	-72,97	
1548,258	-72,55	
1548,260	-72,97	
1548,262	-72,97	
1548,264	-71,19	
1548,266	-72,97	
1548,268	-72,97	
1548,270	-71,24	
1548,272	-71,24	
1548,274	-72,67	
1548,276	-72,97	
1548,278	-72,97	
1548,280	-72,97	
1548,282	-72,97	
1548,284	-72,97	
1548,286	-68,75	
1548,288	-68,19	
1548,290	-71,56	
1548,292	-72,97	
1548,294	-70,45	
1548,296	-70,00	
1548,298	-72,97	
1548,300	-72,97	
1548,302	-72,97	
1548,304	-72,97	
1548,306	-72,97	
1548,308	-72,97	
1548,310	-72,97	
1548,312	-72,97	
1548,314	-72,97	
1548,316	-72,97	
1548,318	-71,03	
1548,320	-68,96	
1548,322	-72,97	
1548,324	-72,19	
1548,326	-72,97	
1548,328	-70,54	
1548,330	-72,97	
1548,332	-72,97	
1548,334	-72,97	
1548,336	-72,97	
1548,338	-72,97	
1548,340	-72,09	
1548,342	-71,91	
1548,344	-70,76	
1548,346	-72,97	
1548,348	-72,97	
1548,350	-72,97	
1548,352	-72,97	
1548,354	-71,91	
1548,356	-72,97	
1548,358	-72,97	
1548,360	-69,63	
1548,362	-71,30	
1548,364	-72,97	
1548,366	-72,77	
1548,368	-72,97	
1548,370	-72,97	
1548,372	-72,97	
1548,374	-72,97	
1548,376	-72,97	
1548,378	-72,97	
1548,380	-72,97	
1548,382	-72,97	
1548,384	-69,59	
1548,386	-72,97	
1548,388	-72,45	
1548,390	-72,97	
1548,392	-72,97	
1548,394	-72,97	
1548,396	-72,97	
1548,398	-70,60	
1548,400	-72,97	
1548,402	-72,97	
1548,404	-72,97	
1548,406	-70,81	
1548,408	-70,03	
1548,410	-71,95	
1548,412	-71,20	
1548,414	-70,61	
1548,416	-71,10	
1548,418	-72,29	
1548,420	-72,97	
1548,422	-72,97	
1548,424	-72,97	
1548,426	-72,48	
1548,428	-72,50	
1548,430	-69,43	
1548,432	-71,50	
1548,434	-72,97	
1548,436	-71,32	
1548,438	-70,71	
1548,440	-70,48	
1548,442	-72,97	
1548,444	-72,97	
1548,446	-72,97	
1548,448	-72,97	
1548,450	-72,97	
1548,452	-71,68	
1548,454	-71,55	
1548,456	-69,44	
1548,458	-70,10	
1548,460	-72,97	
1548,462	-72,97	
1548,464	-72,97	
1548,466	-72,97	
1548,468	-72,97	
1548,470	-70,58	
1548,472	-68,14	
1548,474	-69,86	
1548,476	-71,81	
1548,478	-72,97	
1548,480	-72,97	
1548,482	-72,97	
1548,484	-72,97	
1548,486	-72,97	
1548,488	-72,97	
1548,490	-72,97	
1548,492	-72,97	
1548,494	-72,97	
1548,496	-72,32	
1548,498	-72,22	
1548,500	-72,97	
1548,502	-71,44	
1548,504	-70,38	
1548,506	-70,36	
1548,508	-70,93	
1548,510	-72,97	
1548,512	-70,86	
1548,514	-72,97	
1548,516	-72,97	
1548,518	-72,97	
1548,520	-72,97	
1548,522	-72,97	
1548,524	-72,97	
1548,526	-72,97	
1548,528	-72,97	
1548,530	-72,97	
1548,532	-72,97	
1548,534	-72,97	
1548,536	-72,97	
1548,538	-72,97	
1548,540	-68,01	
1548,542	-71,41	
1548,544	-72,97	
1548,546	-72,97	
1548,548	-72,97	
1548,550	-72,97	
1548,552	-72,97	
1548,554	-72,97	
1548,556	-72,97	
1548,558	-72,97	
1548,560	-71,23	
1548,562	-72,97	
1548,564	-72,29	
1548,566	-71,16	
1548,568	-72,97	
1548,570	-72,97	
1548,572	-72,97	
1548,574	-72,96	
1548,576	-72,97	
1548,578	-70,63	
1548,580	-72,66	
1548,582	-72,97	
1548,584	-72,51	
1548,586	-72,97	
1548,588	-72,73	
1548,590	-72,97	
1548,592	-72,97	
1548,594	-72,97	
1548,596	-72,97	
1548,598	-69,80	
1548,600	-70,21	
1548,602	-72,97	
1548,604	-72,97	
1548,606	-72,46	
1548,608	-72,10	
1548,610	-72,63	
1548,612	-71,35	
1548,614	-72,97	
1548,616	-72,97	
1548,618	-72,97	
1548,620	-70,13	
1548,622	-71,75	
1548,624	-72,84	
1548,626	-72,97	
1548,628	-71,55	
1548,630	-71,20	
1548,632	-68,14	
1548,634	-70,66	
1548,636	-70,16	
1548,638	-72,97	
1548,640	-72,97	
1548,642	-72,12	
1548,644	-72,97	
1548,646	-72,10	
1548,648	-72,97	
1548,650	-72,33	
1548,652	-72,97	
1548,654	-72,97	
1548,656	-72,97	
1548,658	-72,97	
1548,660	-72,97	
1548,662	-72,97	
1548,664	-72,68	
1548,666	-72,33	
1548,668	-72,97	
1548,670	-72,97	
1548,672	-72,97	
1548,674	-70,15	
1548,676	-70,81	
1548,678	-69,79	
1548,680	-68,44	
1548,682	-71,77	
1548,684	-72,97	
1548,686	-72,97	
1548,688	-72,97	
1548,690	-72,97	
1548,692	-72,97	
1548,694	-71,95	
1548,696	-70,55	
1548,698	-70,46	
1548,700	-72,97	
1548,702	-67,74	
1548,704	-66,68	
1548,706	-72,97	
1548,708	-72,97	
1548,710	-70,80	
1548,712	-72,97	
1548,714	-72,97	
1548,716	-71,24	
1548,718	-72,97	
1548,720	-72,97	
1548,722	-72,97	
1548,724	-72,97	
1548,726	-72,97	
1548,728	-69,50	
1548,730	-67,77	
1548,732	-71,68	
1548,734	-72,94	
1548,736	-72,97	
1548,738	-72,97	
1548,740	-72,97	
1548,742	-72,97	
1548,744	-72,97	
1548,746	-72,97	
1548,748	-72,97	
1548,750	-72,97	
1548,752	-72,97	
1548,754	-70,25	
1548,756	-72,97	
1548,758	-72,97	
1548,760	-72,97	
1548,762	-72,97	
1548,764	-72,97	
1548,766	-72,97	
1548,768	-72,97	
1548,770	-72,97	
1548,772	-71,27	
1548,774	-69,52	
1548,776	-72,97	
1548,778	-72,97	
1548,780	-70,11	
1548,782	-69,87	
1548,784	-71,86	
1548,786	-72,97	
1548,788	-72,97	
1548,790	-70,21	
1548,792	-71,48	
1548,794	-71,38	
1548,796	-69,48	
1548,798	-71,16	
1548,800	-72,97	
1548,802	-72,97	
1548,804	-72,97	
1548,806	-72,97	
1548,808	-72,97	
1548,810	-72,97	
1548,812	-72,97	
1548,814	-72,97	
1548,816	-69,78	
1548,818	-67,76	
1548,820	-69,53	
1548,822	-72,74	
1548,824	-68,29	
1548,826	-68,62	
1548,828	-71,05	
1548,830	-72,97	
1548,832	-72,97	
1548,834	-72,97	
1548,836	-69,48	
1548,838	-72,97	
1548,840	-72,97	
1548,842	-72,97	
1548,844	-70,88	
1548,846	-67,45	
1548,848	-68,36	
1548,850	-72,97	
1548,852	-72,97	
1548,854	-72,97	
1548,856	-72,56	
1548,858	-72,97	
1548,860	-72,97	
1548,862	-72,97	
1548,864	-72,97	
1548,866	-67,78	
1548,868	-70,93	
1548,870	-72,97	
1548,872	-72,97	
1548,874	-72,14	
1548,876	-72,97	
1548,878	-72,97	
1548,880	-72,97	
1548,882	-72,97	
1548,884	-72,97	
1548,886	-72,97	
1548,888	-70,00	
1548,890	-70,40	
1548,892	-72,59	
1548,894	-72,97	
1548,896	-72,97	
1548,898	-72,97	
1548,900	-71,20	
1548,902	-72,97	
1548,904	-70,02	
1548,906	-69,71	
1548,908	-70,00	
1548,910	-69,52	
1548,912	-69,64	
1548,914	-70,15	
1548,916	-69,61	
1548,918	-69,81	
1548,920	-72,66	
1548,922	-72,26	
1548,924	-72,97	
1548,926	-72,97	
1548,928	-72,97	
1548,930	-72,97	
1548,932	-72,97	
1548,934	-72,97	
1548,936	-72,97	
1548,938	-72,97	
1548,940	-71,64	
1548,942	-72,97	
1548,944	-71,16	
1548,946	-69,75	
1548,948	-72,43	
1548,950	-71,65	
1548,952	-72,77	
1548,954	-72,97	
1548,956	-69,56	
1548,958	-68,68	
1548,960	-68,56	
1548,962	-72,97	
1548,964	-72,97	
1548,966	-72,97	
1548,968	-72,97	
1548,970	-72,97	
1548,972	-72,97	
1548,974	-68,14	
1548,976	-69,18	
1548,978	-72,97	
1548,980	-70,93	
1548,982	-68,39	
1548,984	-70,27	
1548,986	-72,97	
1548,988	-72,97	
1548,990	-72,97	
1548,992	-72,97	
1548,994	-72,97	
1548,996	-68,71	
1548,998	-66,76	
1549,000	-69,39	
1549,002	-72,97	
1549,004	-70,88	
1549,006	-72,97	
1549,008	-72,97	
1549,010	-72,97	
1549,012	-72,08	
1549,014	-69,51	
1549,016	-72,97	
1549,018	-69,86	
1549,020	-72,97	
1549,022	-72,97	
1549,024	-67,93	
1549,026	-69,17	
1549,028	-71,50	
1549,030	-72,97	
1549,032	-72,97	
1549,034	-72,80	
1549,036	-71,62	
1549,038	-72,97	
1549,040	-72,97	
1549,042	-72,97	
1549,044	-68,32	
1549,046	-72,97	
1549,048	-71,98	
1549,050	-72,97	
1549,052	-72,97	
1549,054	-72,97	
1549,056	-72,97	
1549,058	-68,74	
1549,060	-72,97	
1549,062	-72,97	
1549,064	-72,97	
1549,066	-72,97	
1549,068	-72,15	
1549,070	-72,06	
1549,072	-72,97	
1549,074	-72,97	
1549,076	-68,52	
1549,078	-71,26	
1549,080	-72,97	
1549,082	-71,59	
1549,084	-70,44	
1549,086	-70,11	
1549,088	-69,37	
1549,090	-68,98	
1549,092	-68,74	
1549,094	-69,00	
1549,096	-69,93	
1549,098	-69,35	
1549,100	-72,97	
1549,102	-72,97	
1549,104	-72,31	
1549,106	-72,97	
1549,108	-71,84	
1549,110	-72,97	
1549,112	-72,05	
1549,114	-68,68	
1549,116	-72,97	
1549,118	-71,02	
1549,120	-72,97	
1549,122	-72,97	
1549,124	-72,97	
1549,126	-72,97	
1549,128	-70,27	
1549,130	-70,04	
1549,132	-72,06	
1549,134	-72,97	
1549,136	-72,39	
1549,138	-72,97	
1549,140	-72,97	
1549,142	-72,97	
1549,144	-72,97	
1549,146	-72,73	
1549,148	-70,17	
1549,150	-72,97	
1549,152	-72,97	
1549,154	-72,97	
1549,156	-72,97	
1549,158	-72,22	
1549,160	-71,95	
1549,162	-72,97	
1549,164	-72,05	
1549,166	-72,97	
1549,168	-72,97	
1549,170	-72,97	
1549,172	-72,12	
1549,174	-70,05	
1549,176	-69,46	
1549,178	-68,70	
1549,180	-71,12	
1549,182	-72,97	
1549,184	-70,65	
1549,186	-72,97	
1549,188	-72,97	
1549,190	-72,97	
1549,192	-69,41	
1549,194	-69,37	
1549,196	-72,97	
1549,198	-72,97	
1549,200	-72,97	
1549,202	-69,53	
1549,204	-71,90	
1549,206	-72,97	
1549,208	-72,97	
1549,210	-72,97	
1549,212	-72,97	
1549,214	-72,97	
1549,216	-72,97	
1549,218	-70,28	
1549,220	-72,97	
1549,222	-71,89	
1549,224	-72,03	
1549,226	-72,75	
1549,228	-72,97	
1549,230	-72,97	
1549,232	-72,97	
1549,234	-70,29	
1549,236	-70,43	
1549,238	-72,59	
1549,240	-72,97	
1549,242	-72,97	
1549,244	-72,97	
1549,246	-72,70	
1549,248	-72,97	
1549,250	-72,97	
1549,252	-72,97	
1549,254	-72,97	
1549,256	-72,97	
1549,258	-72,97	
1549,260	-72,97	
1549,262	-72,97	
1549,264	-72,97	
1549,266	-72,97	
1549,268	-69,47	
1549,270	-71,92	
1549,272	-72,97	
1549,274	-72,65	
1549,276	-72,97	
1549,278	-72,97	
1549,280	-72,97	
1549,282	-70,81	
1549,284	-72,97	
1549,286	-71,73	
1549,288	-70,02	
1549,290	-71,28	
1549,292	-71,04	
1549,294	-69,98	
1549,296	-72,95	
1549,298	-72,97	
1549,300	-72,97	
1549,302	-72,97	
1549,304	-68,10	
1549,306	-72,97	
1549,308	-72,97	
1549,310	-72,97	
1549,312	-72,65	
1549,314	-71,92	
1549,316	-68,88	
1549,318	-72,97	
1549,320	-72,97	
1549,322	-72,97	
1549,324	-72,56	
1549,326	-72,11	
1549,328	-72,97	
1549,330	-72,97	
1549,332	-72,97	
1549,334	-72,97	
1549,336	-71,50	
1549,338	-69,77	
1549,340	-70,71	
1549,342	-70,74	
1549,344	-72,97	
1549,346	-72,97	
1549,348	-68,29	
1549,350	-69,98	
1549,352	-72,97	
1549,354	-72,97	
1549,356	-72,97	
1549,358	-72,97	
1549,360	-72,97	
1549,362	-71,64	
1549,364	-70,23	
1549,366	-70,80	
1549,368	-70,68	
1549,370	-67,46	
1549,372	-72,97	
1549,374	-72,97	
1549,376	-72,97	
1549,378	-72,97	
1549,380	-72,97	
1549,382	-71,16	
1549,384	-72,08	
1549,386	-70,59	
1549,388	-72,97	
1549,390	-72,97	
1549,392	-72,97	
1549,394	-66,95	
1549,396	-72,60	
1549,398	-69,84	
1549,400	-72,90	
1549,402	-72,97	
1549,404	-67,93	
1549,406	-71,33	
1549,408	-72,97	
1549,410	-72,97	
1549,412	-72,08	
1549,414	-72,97	
1549,416	-72,97	
1549,418	-72,81	
1549,420	-72,97	
1549,422	-72,97	
1549,424	-72,97	
1549,426	-72,36	
1549,428	-72,97	
1549,430	-71,15	
1549,432	-69,84	
1549,434	-69,49	
1549,436	-71,87	
1549,438	-69,61	
1549,440	-67,94	
1549,442	-72,97	
1549,444	-72,97	
1549,446	-72,97	
1549,448	-72,97	
1549,450	-68,62	
1549,452	-72,97	
1549,454	-72,97	
1549,456	-72,97	
1549,458	-72,97	
1549,460	-72,59	
1549,462	-72,97	
1549,464	-70,95	
1549,466	-72,29	
1549,468	-71,90	
1549,470	-70,17	
1549,472	-71,00	
1549,474	-70,65	
1549,476	-72,97	
1549,478	-70,89	
1549,480	-72,97	
1549,482	-70,26	
1549,484	-70,70	
1549,486	-72,97	
1549,488	-72,97	
1549,490	-70,94	
1549,492	-72,12	
1549,494	-72,97	
1549,496	-72,97	
1549,498	-72,49	
1549,500	-72,97	
1549,502	-72,97	
1549,504	-72,97	
1549,506	-72,97	
1549,508	-69,47	
1549,510	-69,82	
1549,512	-68,71	
1549,514	-72,78	
1549,516	-72,97	
1549,518	-72,97	
1549,520	-70,37	
1549,522	-72,97	
1549,524	-72,97	
1549,526	-72,34	
1549,528	-68,17	
1549,530	-69,07	
1549,532	-72,97	
1549,534	-72,56	
1549,536	-70,42	
1549,538	-72,39	
1549,540	-71,31	
1549,542	-70,53	
1549,544	-71,49	
1549,546	-72,97	
1549,548	-72,97	
1549,550	-72,97	
1549,552	-72,97	
1549,554	-72,97	
1549,556	-71,73	
1549,558	-72,97	
1549,560	-72,97	
1549,562	-70,78	
1549,564	-70,84	
1549,566	-70,00	
1549,568	-69,27	
1549,570	-72,03	
1549,572	-72,97	
1549,574	-69,44	
1549,576	-72,47	
1549,578	-72,97	
1549,580	-72,55	
1549,582	-71,49	
1549,584	-72,97	
1549,586	-72,13	
1549,588	-72,97	
1549,590	-72,97	
1549,592	-72,97	
1549,594	-72,97	
1549,596	-72,97	
1549,598	-72,97	
1549,600	-72,97	
1549,602	-71,17	
1549,604	-71,10	
1549,606	-70,75	
1549,608	-72,97	
1549,610	-72,97	
1549,612	-70,68	
1549,614	-69,91	
1549,616	-70,68	
1549,618	-72,97	
1549,620	-71,58	
1549,622	-72,97	
1549,624	-72,97	
1549,626	-72,97	
1549,628	-72,97	
1549,630	-71,94	
1549,632	-72,97	
1549,634	-72,97	
1549,636	-72,64	
1549,638	-72,97	
1549,640	-72,97	
1549,642	-69,10	
1549,644	-72,03	
1549,646	-72,97	
1549,648	-72,97	
1549,650	-72,41	
1549,652	-70,02	
1549,654	-72,04	
1549,656	-72,97	
1549,658	-72,66	
1549,660	-72,97	
1549,662	-72,97	
1549,664	-72,97	
1549,666	-72,97	
1549,668	-72,97	
1549,670	-72,97	
1549,672	-71,87	
1549,674	-69,99	
1549,676	-66,31	
1549,678	-69,36	
1549,680	-71,65	
1549,682	-68,84	
1549,684	-72,97	
1549,686	-72,97	
1549,688	-72,97	
1549,690	-71,43	
1549,692	-72,14	
1549,694	-72,97	
1549,696	-71,76	
1549,698	-72,97	
1549,700	-72,97	
1549,702	-72,97	
1549,704	-72,97	
1549,706	-72,97	
1549,708	-72,97	
1549,710	-72,97	
1549,712	-69,52	
1549,714	-68,29	
1549,716	-68,77	
1549,718	-69,77	
1549,720	-72,97	
1549,722	-72,97	
1549,724	-72,97	
1549,726	-72,97	
1549,728	-72,97	
1549,730	-71,97	
1549,732	-72,10	
1549,734	-72,97	
1549,736	-72,97	
1549,738	-72,97	
1549,740	-72,97	
1549,742	-72,97	
1549,744	-72,97	
1549,746	-68,12	
1549,748	-68,82	
1549,750	-70,37	
1549,752	-72,97	
1549,754	-69,76	
1549,756	-68,25	
1549,758	-72,21	
1549,760	-72,97	
1549,762	-69,43	
1549,764	-72,97	
1549,766	-72,97	
1549,768	-72,97	
1549,770	-72,97	
1549,772	-72,97	
1549,774	-72,97	
1549,776	-72,97	
1549,778	-70,81	
1549,780	-69,13	
1549,782	-72,00	
1549,784	-68,43	
1549,786	-72,97	
1549,788	-70,46	
1549,790	-70,33	
1549,792	-72,97	
1549,794	-72,97	
1549,796	-72,97	
1549,798	-72,97	
1549,800	-72,97	
1549,802	-72,97	
1549,804	-72,97	
1549,806	-68,55	
1549,808	-70,97	
1549,810	-72,97	
1549,812	-72,97	
1549,814	-72,97	
1549,816	-69,49	
1549,818	-70,35	
1549,820	-70,05	
1549,822	-71,27	
1549,824	-72,14	
1549,826	-72,45	
1549,828	-72,97	
1549,830	-70,18	
1549,832	-68,61	
1549,834	-72,97	
1549,836	-72,97	
1549,838	-72,97	
1549,840	-72,97	
1549,842	-72,81	
1549,844	-72,97	
1549,846	-72,97	
1549,848	-70,34	
1549,850	-72,97	
1549,852	-68,41	
1549,854	-67,96	
1549,856	-72,97	
1549,858	-72,97	
1549,860	-72,97	
1549,862	-72,97	
1549,864	-72,97	
1549,866	-72,97	
1549,868	-72,97	
1549,870	-72,97	
1549,872	-68,07	
1549,874	-68,35	
1549,876	-72,97	
1549,878	-71,44	
1549,880	-68,36	
1549,882	-70,65	
1549,884	-72,97	
1549,886	-72,97	
1549,888	-72,97	
1549,890	-70,91	
1549,892	-72,97	
1549,894	-72,97	
1549,896	-72,97	
1549,898	-72,97	
1549,900	-72,97	
1549,902	-68,38	
1549,904	-72,97	
1549,906	-70,50	
1549,908	-72,97	
1549,910	-72,97	
1549,912	-72,97	
1549,914	-72,97	
1549,916	-69,61	
1549,918	-69,94	
1549,920	-71,27	
1549,922	-71,88	
1549,924	-70,21	
1549,926	-72,97	
1549,928	-72,97	
1549,930	-66,55	
1549,932	-66,30	
1549,934	-70,54	
1549,936	-72,97	
1549,938	-72,97	
1549,940	-72,97	
1549,942	-72,97	
1549,944	-70,76	
1549,946	-68,29	
1549,948	-70,51	
1549,950	-72,97	
1549,952	-72,85	
1549,954	-70,98	
1549,956	-72,97	
1549,958	-72,97	
1549,960	-72,97	
1549,962	-72,97	
1549,964	-72,97	
1549,966	-72,97	
1549,968	-69,29	
1549,970	-72,97	
1549,972	-72,97	
1549,974	-72,97	
1549,976	-72,97	
1549,978	-72,97	
1549,980	-72,97	
1549,982	-72,09	
1549,984	-70,53	
1549,986	-69,86	
1549,988	-72,13	
1549,990	-70,50	
1549,992	-72,97	
1549,994	-72,97	
1549,996	-69,00	
1549,998	-72,97	
1550,000	-72,97	
1550,002	-72,57	
1550,004	-72,97	
1550,006	-69,89	
1550,008	-72,97	
1550,010	-72,97	
1550,012	-72,97	
1550,014	-72,97	
1550,016	-72,97	
1550,018	-72,97	
1550,020	-72,97	
1550,022	-68,82	
1550,024	-72,97	
1550,026	-69,07	
1550,028	-71,00	
1550,030	-68,30	
1550,032	-69,57	
1550,034	-69,23	
1550,036	-72,97	
1550,038	-72,35	
1550,040	-71,46	
1550,042	-67,64	
1550,044	-71,07	
1550,046	-72,97	
1550,048	-71,37	
1550,050	-72,97	
1550,052	-72,97	
1550,054	-72,97	
1550,056	-72,97	
1550,058	-72,97	
1550,060	-72,35	
1550,062	-72,97	
1550,064	-70,87	
1550,066	-70,52	
1550,068	-72,97	
1550,070	-69,00	
1550,072	-72,54	
1550,074	-71,64	
1550,076	-70,20	
1550,078	-72,97	
1550,080	-72,97	
1550,082	-71,02	
1550,084	-72,53	
1550,086	-72,97	
1550,088	-71,79	
1550,090	-71,52	
1550,092	-71,68	
1550,094	-71,99	
1550,096	-72,97	
1550,098	-72,97	
1550,100	-70,80	
1550,102	-69,84	
1550,104	-72,97	
1550,106	-72,97	
1550,108	-71,64	
1550,110	-72,27	
1550,112	-72,97	
1550,114	-72,97	
1550,116	-72,97	
1550,118	-72,60	
1550,120	-71,87	
1550,122	-72,97	
1550,124	-68,80	
1550,126	-68,27	
1550,128	-72,11	
1550,130	-72,97	
1550,132	-72,97	
1550,134	-72,97	
1550,136	-72,25	
1550,138	-70,70	
1550,140	-72,97	
1550,142	-70,50	
1550,144	-72,97	
1550,146	-72,97	
1550,148	-69,54	
1550,150	-67,36	
1550,152	-71,52	
1550,154	-72,97	
1550,156	-70,17	
1550,158	-72,97	
1550,160	-72,97	
1550,162	-72,36	
1550,164	-71,99	
1550,166	-71,24	
1550,168	-72,97	
1550,170	-72,97	
1550,172	-72,97	
1550,174	-72,97	
1550,176	-72,97	
1550,178	-72,97	
1550,180	-71,79	
1550,182	-70,80	
1550,184	-71,87	
1550,186	-72,97	
1550,188	-72,97	
1550,190	-72,97	
1550,192	-72,97	
1550,194	-72,97	
1550,196	-72,97	
1550,198	-70,07	
1550,200	-70,86	
1550,202	-69,29	
1550,204	-72,97	
1550,206	-72,97	
1550,208	-72,97	
1550,210	-72,97	
1550,212	-72,97	
1550,214	-72,97	
1550,216	-72,97	
1550,218	-72,97	
1550,220	-72,97	
1550,222	-72,97	
1550,224	-72,97	
1550,226	-72,97	
1550,228	-72,97	
1550,230	-72,97	
1550,232	-72,97	
1550,234	-69,51	
1550,236	-68,66	
1550,238	-72,97	
1550,240	-68,86	
1550,242	-72,45	
1550,244	-72,97	
1550,246	-72,97	
1550,248	-72,97	
1550,250	-71,36	
1550,252	-70,86	
1550,254	-72,97	
1550,256	-72,97	
1550,258	-72,00	
1550,260	-72,97	
1550,262	-72,84	
1550,264	-69,47	
1550,266	-72,26	
1550,268	-72,97	
1550,270	-72,97	
1550,272	-72,97	
1550,274	-72,97	
1550,276	-72,97	
1550,278	-69,83	
1550,280	-70,82	
1550,282	-72,78	
1550,284	-71,96	
1550,286	-71,52	
1550,288	-72,97	
1550,290	-72,97	
1550,292	-71,83	
1550,294	-72,90	
1550,296	-72,97	
1550,298	-72,97	
1550,300	-70,80	
1550,302	-71,72	
1550,304	-69,54	
1550,306	-68,66	
1550,308	-72,97	
1550,310	-72,62	
1550,312	-71,46	
1550,314	-71,46	
1550,316	-72,97	
1550,318	-72,97	
1550,320	-72,39	
1550,322	-70,63	
1550,324	-69,62	
1550,326	-69,25	
1550,328	-72,97	
1550,330	-72,97	
1550,332	-72,97	
1550,334	-68,59	
1550,336	-69,43	
1550,338	-72,97	
1550,340	-72,97	
1550,342	-72,97	
1550,344	-72,97	
1550,346	-72,97	
1550,348	-72,97	
1550,350	-72,97	
1550,352	-71,94	
1550,354	-70,06	
1550,356	-68,17	
1550,358	-67,79	
1550,360	-71,43	
1550,362	-72,92	
1550,364	-72,97	
1550,366	-71,03	
1550,368	-68,71	
1550,370	-70,33	
1550,372	-72,97	
1550,374	-70,50	
1550,376	-72,97	
1550,378	-72,97	
1550,380	-72,97	
1550,382	-71,39	
1550,384	-69,29	
1550,386	-72,97	
1550,388	-72,97	
1550,390	-72,97	
1550,392	-72,97	
1550,394	-72,97	
1550,396	-68,53	
1550,398	-66,89	
1550,400	-70,07	
1550,402	-72,97	
1550,404	-72,97	
1550,406	-71,81	
1550,408	-69,60	
1550,410	-72,97	
1550,412	-72,97	
1550,414	-71,81	
1550,416	-69,68	
1550,418	-72,97	
1550,420	-72,97	
1550,422	-72,97	
1550,424	-72,86	
1550,426	-68,40	
1550,428	-68,50	
1550,430	-71,29	
1550,432	-72,97	
1550,434	-72,97	
1550,436	-72,97	
1550,438	-72,97	
1550,440	-72,97	
1550,442	-72,97	
1550,444	-72,97	
1550,446	-72,97	
1550,448	-71,12	
1550,450	-72,97	
1550,452	-69,83	
1550,454	-66,91	
1550,456	-70,82	
1550,458	-72,97	
1550,460	-72,97	
1550,462	-69,48	
1550,464	-72,71	
1550,466	-72,75	
1550,468	-69,90	
1550,470	-72,97	
1550,472	-72,97	
1550,474	-72,97	
1550,476	-72,97	
1550,478	-72,97	
1550,480	-72,97	
1550,482	-72,97	
1550,484	-71,24	
1550,486	-72,97	
1550,488	-69,39	
1550,490	-69,07	
1550,492	-72,97	
1550,494	-72,97	
1550,496	-72,97	
1550,498	-70,66	
1550,500	-72,89	
1550,502	-72,97	
1550,504	-72,97	
1550,506	-72,97	
1550,508	-72,97	
1550,510	-72,97	
1550,512	-72,97	
1550,514	-72,97	
1550,516	-72,97	
1550,518	-72,97	
1550,520	-72,97	
1550,522	-71,67	
1550,524	-72,97	
1550,526	-72,97	
1550,528	-72,97	
1550,530	-70,87	
1550,532	-69,46	
1550,534	-72,97	
1550,536	-72,97	
1550,538	-72,97	
1550,540	-72,97	
1550,542	-71,73	
1550,544	-72,97	
1550,546	-72,97	
1550,548	-72,97	
1550,550	-72,97	
1550,552	-72,11	
1550,554	-69,68	
1550,556	-69,58	
1550,558	-69,20	
1550,560	-69,47	
1550,562	-69,41	
1550,564	-71,50	
1550,566	-70,06	
1550,568	-72,27	
1550,570	-72,97	
1550,572	-69,94	
1550,574	-71,62	
1550,576	-72,97	
1550,578	-67,90	
1550,580	-68,43	
1550,582	-72,97	
1550,584	-72,47	
1550,586	-70,04	
1550,588	-71,87	
1550,590	-72,97	
1550,592	-70,60	
1550,594	-70,04	
1550,596	-72,96	
1550,598	-72,97	
1550,600	-72,97	
1550,602	-71,25	
1550,604	-70,43	
1550,606	-69,07	
1550,608	-69,18	
1550,610	-71,04	
1550,612	-70,90	
1550,614	-72,97	
1550,616	-72,76	
1550,618	-72,97	
1550,620	-72,97	
1550,622	-72,97	
1550,624	-72,97	
1550,626	-72,97	
1550,628	-72,97	
1550,630	-70,79	
1550,632	-70,97	
1550,634	-70,33	
1550,636	-69,20	
1550,638	-72,97	
1550,640	-72,97	
1550,642	-72,97	
1550,644	-72,97	
1550,646	-72,75	
1550,648	-72,97	
1550,650	-72,97	
1550,652	-72,97	
1550,654	-72,97	
1550,656	-72,97	
1550,658	-69,85	
1550,660	-68,04	
1550,662	-69,24	
1550,664	-68,86	
1550,666	-70,83	
1550,668	-72,97	
1550,670	-72,97	
1550,672	-72,97	
1550,674	-72,97	
1550,676	-72,97	
1550,678	-72,97	
1550,680	-72,97	
1550,682	-72,97	
1550,684	-72,97	
1550,686	-72,97	
1550,688	-72,97	
1550,690	-72,97	
1550,692	-72,97	
1550,694	-72,97	
1550,696	-72,97	
1550,698	-68,37	
1550,700	-69,06	
1550,702	-68,17	
1550,704	-67,84	
1550,706	-71,88	
1550,708	-72,97	
1550,710	-71,73	
1550,712	-72,97	
1550,714	-72,97	
1550,716	-72,97	
1550,718	-72,97	
1550,720	-69,69	
1550,722	-68,24	
1550,724	-72,97	
1550,726	-72,97	
1550,728	-72,97	
1550,730	-72,97	
1550,732	-72,97	
1550,734	-72,97	
1550,736	-72,97	
1550,738	-72,50	
1550,740	-69,21	
1550,742	-69,42	
1550,744	-70,69	
1550,746	-72,97	
1550,748	-72,97	
1550,750	-72,97	
1550,752	-71,70	
1550,754	-70,41	
1550,756	-68,70	
1550,758	-69,25	
1550,760	-72,97	
1550,762	-72,97	
1550,764	-72,97	
1550,766	-69,55	
1550,768	-68,09	
1550,770	-72,97	
1550,772	-72,97	
1550,774	-68,44	
1550,776	-69,56	
1550,778	-71,05	
1550,780	-72,97	
1550,782	-72,97	
1550,784	-72,97	
1550,786	-72,97	
1550,788	-72,97	
1550,790	-72,97	
1550,792	-72,97	
1550,794	-72,97	
1550,796	-72,97	
1550,798	-72,97	
1550,800	-70,56	
1550,802	-72,00	
1550,804	-72,97	
1550,806	-71,96	
1550,808	-69,77	
1550,810	-70,46	
1550,812	-71,34	
1550,814	-72,97	
1550,816	-72,97	
1550,818	-72,97	
1550,820	-72,97	
1550,822	-72,97	
1550,824	-72,97	
1550,826	-72,97	
1550,828	-72,97	
1550,830	-72,97	
1550,832	-72,97	
1550,834	-72,97	
1550,836	-70,16	
1550,838	-72,19	
1550,840	-70,31	
1550,842	-72,97	
1550,844	-72,97	
1550,846	-72,97	
1550,848	-72,97	
1550,850	-72,97	
1550,852	-71,46	
1550,854	-72,97	
1550,856	-72,75	
1550,858	-72,97	
1550,860	-72,97	
1550,862	-70,50	
1550,864	-72,97	
1550,866	-70,84	
1550,868	-71,25	
1550,870	-72,97	
1550,872	-70,96	
1550,874	-72,68	
1550,876	-72,51	
1550,878	-72,97	
1550,880	-72,97	
1550,882	-69,61	
1550,884	-72,17	
1550,886	-68,63	
1550,888	-72,86	
1550,890	-72,97	
1550,892	-72,97	
1550,894	-72,16	
1550,896	-71,62	
1550,898	-72,39	
1550,900	-71,59	
1550,902	-72,12	
1550,904	-72,97	
1550,906	-72,97	
1550,908	-72,97	
1550,910	-72,97	
1550,912	-72,97	
1550,914	-72,60	
1550,916	-72,97	
1550,918	-72,97	
1550,920	-71,63	
1550,922	-72,97	
1550,924	-70,88	
1550,926	-71,91	
1550,928	-70,81	
1550,930	-72,96	
1550,932	-72,97	
1550,934	-72,97	
1550,936	-72,97	
1550,938	-70,52	
1550,940	-71,41	
1550,942	-72,97	
1550,944	-72,97	
1550,946	-72,97	
1550,948	-72,97	
1550,950	-72,97	
1550,952	-70,19	
1550,954	-72,65	
1550,956	-72,97	
1550,958	-72,97	
1550,960	-72,97	
1550,962	-72,97	
1550,964	-72,97	
1550,966	-72,19	
1550,968	-67,88	
1550,970	-72,43	
1550,972	-70,57	
1550,974	-70,06	
1550,976	-72,89	
1550,978	-72,97	
1550,980	-72,97	
1550,982	-72,97	
1550,984	-68,90	
1550,986	-70,90	
1550,988	-72,97	
1550,990	-69,15	
1550,992	-69,11	
1550,994	-72,97	
1550,996	-72,97	
1550,998	-72,97	
1551,000	-70,63	
1551,002	-69,98	
1551,004	-72,12	
1551,006	-72,59	
1551,008	-72,59	
1551,010	-72,97	
1551,012	-72,97	
1551,014	-72,97	
1551,016	-72,97	
1551,018	-72,97	
1551,020	-70,84	
1551,022	-72,97	
1551,024	-72,97	
1551,026	-72,97	
1551,028	-72,97	
1551,030	-72,97	
1551,032	-72,97	
1551,034	-72,97	
1551,036	-72,97	
1551,038	-72,97	
1551,040	-69,15	
1551,042	-71,13	
1551,044	-72,97	
1551,046	-71,93	
1551,048	-69,61	
1551,050	-70,70	
1551,052	-72,97	
1551,054	-72,23	
1551,056	-72,97	
1551,058	-72,97	
1551,060	-72,97	
1551,062	-72,97	
1551,064	-72,29	
1551,066	-72,97	
1551,068	-72,97	
1551,070	-72,30	
1551,072	-68,52	
1551,074	-72,26	
1551,076	-72,97	
1551,078	-71,97	
1551,080	-72,97	
1551,082	-72,97	
1551,084	-71,60	
1551,086	-72,97	
1551,088	-72,97	
1551,090	-72,97	
1551,092	-69,41	
1551,094	-70,96	
1551,096	-71,22	
1551,098	-70,00	
1551,100	-70,83	
1551,102	-67,46	
1551,104	-68,88	
1551,106	-71,02	
1551,108	-72,97	
1551,110	-71,31	
1551,112	-72,97	
1551,114	-72,97	
1551,116	-72,97	
1551,118	-72,97	
1551,120	-72,97	
1551,122	-72,97	
1551,124	-72,97	
1551,126	-72,97	
1551,128	-72,97	
1551,130	-72,97	
1551,132	-72,97	
1551,134	-72,93	
1551,136	-67,66	
1551,138	-72,46	
1551,140	-72,97	
1551,142	-72,97	
1551,144	-72,97	
1551,146	-72,97	
1551,148	-72,97	
1551,150	-72,97	
1551,152	-71,28	
1551,154	-66,45	
1551,156	-67,19	
1551,158	-70,90	
1551,160	-72,97	
1551,162	-72,97	
1551,164	-72,97	
1551,166	-71,23	
1551,168	-72,97	
1551,170	-71,84	
1551,172	-72,61	
1551,174	-72,97	
1551,176	-72,97	
1551,178	-72,29	
1551,180	-72,97	
1551,182	-72,97	
1551,184	-72,97	
1551,186	-72,97	
1551,188	-72,97	
1551,190	-72,97	
1551,192	-70,93	
1551,194	-72,97	
1551,196	-71,66	
1551,198	-68,82	
1551,200	-71,29	
1551,202	-72,97	
1551,204	-72,97	
1551,206	-72,97	
1551,208	-72,97	
1551,210	-71,29	
1551,212	-72,97	
1551,214	-72,97	
1551,216	-72,97	
1551,218	-72,65	
1551,220	-70,23	
1551,222	-70,59	
1551,224	-72,97	
1551,226	-72,97	
1551,228	-72,97	
1551,230	-72,97	
1551,232	-72,97	
1551,234	-72,97	
1551,236	-72,97	
1551,238	-72,97	
1551,240	-71,15	
1551,242	-69,20	
1551,244	-70,15	
1551,246	-68,62	
1551,248	-72,53	
1551,250	-72,97	
1551,252	-70,02	
1551,254	-71,75	
1551,256	-72,97	
1551,258	-72,97	
1551,260	-72,97	
1551,262	-71,19	
1551,264	-70,44	
1551,266	-72,97	
1551,268	-72,97	
1551,270	-72,97	
1551,272	-72,97	
1551,274	-71,04	
1551,276	-71,68	
1551,278	-72,87	
1551,280	-70,27	
1551,282	-72,97	
1551,284	-72,97	
1551,286	-72,97	
1551,288	-72,97	
1551,290	-72,97	
1551,292	-72,94	
1551,294	-72,96	
1551,296	-72,97	
1551,298	-72,09	
1551,300	-66,38	
1551,302	-71,03	
1551,304	-72,97	
1551,306	-71,23	
1551,308	-72,97	
1551,310	-70,62	
1551,312	-72,97	
1551,314	-72,97	
1551,316	-72,97	
1551,318	-72,97	
1551,320	-72,97	
1551,322	-70,98	
1551,324	-67,10	
1551,326	-70,12	
1551,328	-69,30	
1551,330	-72,97	
1551,332	-72,97	
1551,334	-69,41	
1551,336	-72,97	
1551,338	-72,97	
1551,340	-72,97	
1551,342	-72,97	
1551,344	-72,97	
1551,346	-72,97	
1551,348	-70,54	
1551,350	-69,63	
1551,352	-68,99	
1551,354	-72,97	
1551,356	-72,97	
1551,358	-72,97	
1551,360	-72,97	
1551,362	-72,97	
1551,364	-72,97	
1551,366	-72,97	
1551,368	-69,89	
1551,370	-69,76	
1551,372	-72,12	
1551,374	-69,60	
1551,376	-72,97	
1551,378	-72,04	
1551,380	-66,90	
1551,382	-71,01	
1551,384	-72,97	
1551,386	-72,97	
1551,388	-72,68	
1551,390	-72,97	
1551,392	-72,97	
1551,394	-72,97	
1551,396	-70,93	
1551,398	-70,81	
1551,400	-70,85	
1551,402	-67,78	
1551,404	-72,97	
1551,406	-72,97	
1551,408	-72,97	
1551,410	-71,13	
1551,412	-72,43	
1551,414	-72,97	
1551,416	-72,97	
1551,418	-72,97	
1551,420	-72,97	
1551,422	-72,97	
1551,424	-72,97	
1551,426	-72,97	
1551,428	-72,97	
1551,430	-68,65	
1551,432	-72,97	
1551,434	-72,97	
1551,436	-72,97	
1551,438	-71,56	
1551,440	-72,75	
1551,442	-72,97	
1551,444	-72,97	
1551,446	-72,97	
1551,448	-72,97	
1551,450	-71,60	
1551,452	-70,92	
1551,454	-72,97	
1551,456	-72,97	
1551,458	-72,97	
1551,460	-72,97	
1551,462	-70,75	
1551,464	-72,52	
1551,466	-70,20	
1551,468	-71,08	
1551,470	-70,30	
1551,472	-72,97	
1551,474	-72,97	
1551,476	-72,97	
1551,478	-70,42	
1551,480	-71,51	
1551,482	-70,01	
1551,484	-67,23	
1551,486	-70,44	
1551,488	-72,97	
1551,490	-72,97	
1551,492	-72,04	
1551,494	-72,97	
1551,496	-72,97	
1551,498	-71,53	
1551,500	-70,86	
1551,502	-72,97	
1551,504	-72,97	
1551,506	-69,78	
1551,508	-69,29	
1551,510	-72,97	
1551,512	-71,34	
1551,514	-72,97	
1551,516	-72,97	
1551,518	-72,97	
1551,520	-69,40	
1551,522	-70,89	
1551,524	-70,62	
1551,526	-72,97	
1551,528	-72,97	
1551,530	-72,97	
1551,532	-72,97	
1551,534	-72,97	
1551,536	-72,97	
1551,538	-72,97	
1551,540	-72,97	
1551,542	-69,69	
1551,544	-72,97	
1551,546	-71,61	
1551,548	-72,97	
1551,550	-70,63	
1551,552	-70,54	
1551,554	-72,97	
1551,556	-71,06	
1551,558	-72,97	
1551,560	-72,97	
1551,562	-72,97	
1551,564	-72,97	
1551,566	-72,97	
1551,568	-71,32	
1551,570	-68,85	
1551,572	-72,97	
1551,574	-69,44	
1551,576	-68,22	
1551,578	-70,74	
1551,580	-70,17	
1551,582	-72,97	
1551,584	-72,97	
1551,586	-72,97	
1551,588	-72,97	
1551,590	-72,43	
1551,592	-72,09	
1551,594	-70,57	
1551,596	-72,44	
1551,598	-70,08	
1551,600	-72,01	
1551,602	-72,06	
1551,604	-72,97	
1551,606	-72,97	
1551,608	-72,97	
1551,610	-72,97	
1551,612	-72,90	
1551,614	-70,29	
1551,616	-70,25	
1551,618	-69,13	
1551,620	-72,97	
1551,622	-72,97	
1551,624	-70,79	
1551,626	-71,27	
1551,628	-72,97	
1551,630	-72,97	
1551,632	-72,97	
1551,634	-72,97	
1551,636	-71,32	
1551,638	-71,38	
1551,640	-70,93	
1551,642	-71,37	
1551,644	-69,72	
1551,646	-69,13	
1551,648	-72,97	
1551,650	-72,97	
1551,652	-68,79	
1551,654	-71,58	
1551,656	-72,97	
1551,658	-72,97	
1551,660	-68,05	
1551,662	-68,49	
1551,664	-72,97	
1551,666	-72,97	
1551,668	-72,97	
1551,670	-72,97	
1551,672	-72,97	
1551,674	-72,97	
1551,676	-72,97	
1551,678	-72,97	
1551,680	-70,39	
1551,682	-67,20	
1551,684	-72,97	
1551,686	-72,97	
1551,688	-68,80	
1551,690	-72,97	
1551,692	-72,97	
1551,694	-72,97	
1551,696	-72,97	
1551,698	-72,97	
1551,700	-72,97	
1551,702	-68,05	
1551,704	-71,85	
1551,706	-72,97	
1551,708	-66,63	
1551,710	-70,20	
1551,712	-72,97	
1551,714	-70,44	
1551,716	-72,97	
1551,718	-72,97	
1551,720	-72,61	
1551,722	-72,88	
1551,724	-72,97	
1551,726	-72,97	
1551,728	-66,97	
1551,730	-67,85	
1551,732	-68,74	
1551,734	-68,88	
1551,736	-71,37	
1551,738	-68,89	
1551,740	-72,97	
1551,742	-72,11	
1551,744	-72,97	
1551,746	-72,97	
1551,748	-72,97	
1551,750	-71,24	
1551,752	-71,82	
1551,754	-71,82	
1551,756	-72,97	
1551,758	-72,97	
1551,760	-72,67	
1551,762	-70,69	
1551,764	-70,81	
1551,766	-72,97	
1551,768	-72,47	
1551,770	-72,97	
1551,772	-72,97	
1551,774	-72,97	
1551,776	-72,97	
1551,778	-72,97	
1551,780	-70,23	
1551,782	-72,97	
1551,784	-69,60	
1551,786	-68,41	
1551,788	-70,57	
1551,790	-72,97	
1551,792	-72,97	
1551,794	-72,97	
1551,796	-72,97	
1551,798	-72,44	
1551,800	-71,96	
1551,802	-72,97	
1551,804	-72,97	
1551,806	-70,77	
1551,808	-71,87	
1551,810	-70,79	
1551,812	-68,11	
1551,814	-69,15	
1551,816	-72,97	
1551,818	-72,97	
1551,820	-72,43	
1551,822	-71,81	
1551,824	-69,29	
1551,826	-68,23	
1551,828	-70,64	
1551,830	-72,97	
1551,832	-71,26	
1551,834	-72,24	
1551,836	-72,97	
1551,838	-72,97	
1551,840	-72,97	
1551,842	-71,86	
1551,844	-70,78	
1551,846	-72,97	
1551,848	-70,92	
1551,850	-68,61	
1551,852	-70,55	
1551,854	-70,88	
1551,856	-72,97	
1551,858	-72,97	
1551,860	-72,97	
1551,862	-71,38	
1551,864	-69,96	
1551,866	-72,97	
1551,868	-72,97	
1551,870	-71,15	
1551,872	-70,27	
1551,874	-72,97	
1551,876	-69,89	
1551,878	-67,16	
1551,880	-70,82	
1551,882	-72,97	
1551,884	-72,97	
1551,886	-72,97	
1551,888	-72,96	
1551,890	-72,97	
1551,892	-71,03	
1551,894	-70,62	
1551,896	-72,97	
1551,898	-72,97	
1551,900	-72,97	
1551,902	-69,69	
1551,904	-69,64	
1551,906	-71,31	
1551,908	-70,75	
1551,910	-72,97	
1551,912	-72,97	
1551,914	-72,97	
1551,916	-72,97	
1551,918	-72,97	
1551,920	-72,97	
1551,922	-72,67	
1551,924	-70,09	
1551,926	-72,97	
1551,928	-72,97	
1551,930	-72,97	
1551,932	-70,97	
1551,934	-72,97	
1551,936	-69,77	
1551,938	-72,12	
1551,940	-72,97	
1551,942	-72,97	
1551,944	-72,97	
1551,946	-72,97	
1551,948	-72,97	
1551,950	-72,97	
1551,952	-72,97	
1551,954	-70,25	
1551,956	-70,49	
1551,958	-72,97	
1551,960	-70,10	
1551,962	-72,97	
1551,964	-72,77	
1551,966	-72,97	
1551,968	-71,38	
1551,970	-68,43	
1551,972	-72,97	
1551,974	-67,35	
1551,976	-69,71	
1551,978	-72,97	
1551,980	-72,62	
1551,982	-72,97	
1551,984	-72,97	
1551,986	-72,05	
1551,988	-69,17	
1551,990	-72,40	
1551,992	-69,72	
1551,994	-72,97	
1551,996	-72,97	
1551,998	-72,97	
1552,000	-72,64	
1552,002	-69,50	
1552,004	-72,97	
1552,006	-68,39	
1552,008	-71,57	
1552,010	-72,59	
1552,012	-71,57	
1552,014	-72,97	
1552,016	-70,65	
1552,018	-70,03	
1552,020	-68,57	
1552,022	-71,46	
1552,024	-72,97	
1552,026	-72,97	
1552,028	-71,73	
1552,030	-72,97	
1552,032	-72,97	
1552,034	-72,97	
1552,036	-72,97	
1552,038	-72,97	
1552,040	-72,97	
1552,042	-70,15	
1552,044	-72,67	
1552,046	-72,97	
1552,048	-71,69	
1552,050	-72,97	
1552,052	-72,97	
1552,054	-72,97	
1552,056	-72,83	
1552,058	-72,97	
1552,060	-72,97	
1552,062	-71,36	
1552,064	-68,91	
1552,066	-72,97	
1552,068	-68,71	
1552,070	-69,78	
1552,072	-72,97	
1552,074	-69,85	
1552,076	-72,25	
1552,078	-72,97	
1552,080	-70,02	
1552,082	-71,17	
1552,084	-72,44	
1552,086	-72,55	
1552,088	-70,35	
1552,090	-72,97	
1552,092	-72,97	
1552,094	-72,16	
1552,096	-72,97	
1552,098	-72,97	
1552,100	-72,97	
1552,102	-72,25	
1552,104	-72,97	
1552,106	-72,97	
1552,108	-72,97	
1552,110	-72,97	
1552,112	-72,97	
1552,114	-72,97	
1552,116	-72,97	
1552,118	-69,42	
1552,120	-69,28	
1552,122	-68,11	
1552,124	-68,55	
1552,126	-70,79	
1552,128	-72,97	
1552,130	-72,97	
1552,132	-70,77	
1552,134	-70,75	
1552,136	-72,97	
1552,138	-72,45	
1552,140	-68,02	
1552,142	-70,18	
1552,144	-67,95	
1552,146	-67,60	
1552,148	-72,97	
1552,150	-71,13	
1552,152	-72,97	
1552,154	-69,46	
1552,156	-68,11	
1552,158	-71,48	
1552,160	-71,41	
1552,162	-69,51	
1552,164	-72,97	
1552,166	-72,52	
1552,168	-70,84	
1552,170	-70,32	
1552,172	-72,84	
1552,174	-72,97	
1552,176	-72,97	
1552,178	-72,97	
1552,180	-72,97	
1552,182	-67,01	
1552,184	-67,32	
1552,186	-71,77	
1552,188	-70,24	
1552,190	-72,97	
1552,192	-72,97	
1552,194	-72,97	
1552,196	-72,97	
1552,198	-71,75	
1552,200	-71,00	
1552,202	-69,48	
1552,204	-72,80	
1552,206	-72,97	
1552,208	-72,97	
1552,210	-72,97	
1552,212	-72,97	
1552,214	-70,97	
1552,216	-70,98	
1552,218	-67,89	
1552,220	-69,75	
1552,222	-72,97	
1552,224	-72,97	
1552,226	-72,97	
1552,228	-72,97	
1552,230	-72,97	
1552,232	-72,97	
1552,234	-70,81	
1552,236	-72,97	
1552,238	-72,97	
1552,240	-72,75	
1552,242	-70,37	
1552,244	-72,97	
1552,246	-72,97	
1552,248	-72,97	
1552,250	-72,97	
1552,252	-70,62	
1552,254	-72,63	
1552,256	-72,21	
1552,258	-72,97	
1552,260	-72,97	
1552,262	-72,92	
1552,264	-72,97	
1552,266	-71,67	
1552,268	-72,97	
1552,270	-71,40	
1552,272	-71,85	
1552,274	-70,74	
1552,276	-72,42	
1552,278	-72,97	
1552,280	-72,97	
1552,282	-72,97	
1552,284	-72,97	
1552,286	-72,97	
1552,288	-72,97	
1552,290	-72,97	
1552,292	-72,94	
1552,294	-72,97	
1552,296	-72,97	
1552,298	-71,32	
1552,300	-72,97	
1552,302	-69,66	
1552,304	-67,84	
1552,306	-68,69	
1552,308	-72,97	
1552,310	-72,97	
1552,312	-72,97	
1552,314	-72,97	
1552,316	-70,63	
1552,318	-71,28	
1552,320	-72,97	
1552,322	-72,97	
1552,324	-72,97	
1552,326	-72,97	
1552,328	-72,97	
1552,330	-70,73	
1552,332	-70,86	
1552,334	-70,55	
1552,336	-72,97	
1552,338	-71,09	
1552,340	-72,97	
1552,342	-72,97	
1552,344	-72,97	
1552,346	-70,14	
1552,348	-71,14	
1552,350	-72,84	
1552,352	-70,86	
1552,354	-72,97	
1552,356	-71,63	
1552,358	-71,80	
1552,360	-72,97	
1552,362	-72,97	
1552,364	-72,97	
1552,366	-70,69	
1552,368	-72,97	
1552,370	-72,97	
1552,372	-72,97	
1552,374	-72,33	
1552,376	-72,08	
1552,378	-72,97	
1552,380	-72,97	
1552,382	-72,50	
1552,384	-67,94	
1552,386	-68,06	
1552,388	-72,97	
1552,390	-72,97	
1552,392	-72,97	
1552,394	-72,97	
1552,396	-72,81	
1552,398	-72,60	
1552,400	-70,85	
1552,402	-71,60	
1552,404	-69,29	
1552,406	-70,91	
1552,408	-70,91	
1552,410	-68,79	
1552,412	-72,97	
1552,414	-72,49	
1552,416	-72,97	
1552,418	-72,97	
1552,420	-72,97	
1552,422	-72,97	
1552,424	-72,31	
1552,426	-72,97	
1552,428	-72,97	
1552,430	-72,97	
1552,432	-72,97	
1552,434	-72,97	
1552,436	-67,38	
1552,438	-66,16	
1552,440	-70,00	
1552,442	-72,97	
1552,444	-72,97	
1552,446	-72,97	
1552,448	-72,91	
1552,450	-72,97	
1552,452	-72,97	
1552,454	-69,69	
1552,456	-72,04	
1552,458	-72,97	
1552,460	-72,97	
1552,462	-70,77	
1552,464	-70,68	
1552,466	-72,97	
1552,468	-72,97	
1552,470	-72,97	
1552,472	-72,97	
1552,474	-71,55	
1552,476	-71,18	
1552,478	-72,84	
1552,480	-72,97	
1552,482	-71,85	
1552,484	-72,97	
1552,486	-69,93	
1552,488	-71,68	
1552,490	-72,11	
1552,492	-67,10	
1552,494	-72,97	
1552,496	-68,19	
1552,498	-70,39	
1552,500	-72,97	
1552,502	-72,56	
1552,504	-72,97	
1552,506	-71,97	
1552,508	-72,97	
1552,510	-72,97	
1552,512	-72,97	
1552,514	-72,97	
1552,516	-71,33	
1552,518	-71,55	
1552,520	-72,97	
1552,522	-72,97	
1552,524	-72,97	
1552,526	-72,97	
1552,528	-72,97	
1552,530	-68,85	
1552,532	-72,97	
1552,534	-72,97	
1552,536	-68,09	
1552,538	-70,58	
1552,540	-72,97	
1552,542	-72,97	
1552,544	-72,97	
1552,546	-72,97	
1552,548	-72,97	
1552,550	-70,69	
1552,552	-72,97	
1552,554	-72,97	
1552,556	-72,74	
1552,558	-69,49	
1552,560	-72,97	
1552,562	-72,97	
1552,564	-72,97	
1552,566	-72,97	
1552,568	-72,97	
1552,570	-72,97	
1552,572	-72,97	
1552,574	-67,86	
1552,576	-68,67	
1552,578	-72,00	
1552,580	-70,78	
1552,582	-68,17	
1552,584	-71,19	
1552,586	-72,97	
1552,588	-72,97	
1552,590	-72,97	
1552,592	-72,97	
1552,594	-68,53	
1552,596	-68,95	
1552,598	-72,97	
1552,600	-72,97	
1552,602	-72,92	
1552,604	-72,97	
1552,606	-71,36	
1552,608	-72,97	
1552,610	-65,71	
1552,612	-65,22	
1552,614	-70,68	
1552,616	-72,97	
1552,618	-72,97	
1552,620	-72,76	
1552,622	-70,80	
1552,624	-71,21	
1552,626	-71,54	
1552,628	-72,97	
1552,630	-72,97	
1552,632	-72,97	
1552,634	-72,97	
1552,636	-72,97	
1552,638	-70,55	
1552,640	-70,67	
1552,642	-70,02	
1552,644	-72,97	
1552,646	-72,97	
1552,648	-72,97	
1552,650	-72,17	
1552,652	-72,97	
1552,654	-69,72	
1552,656	-71,27	
1552,658	-72,97	
1552,660	-67,71	
1552,662	-72,97	
1552,664	-72,97	
1552,666	-72,97	
1552,668	-72,97	
1552,670	-72,97	
1552,672	-72,97	
1552,674	-72,97	
1552,676	-72,97	
1552,678	-72,97	
1552,680	-72,97	
1552,682	-72,97	
1552,684	-72,97	
1552,686	-70,95	
1552,688	-71,67	
1552,690	-69,91	
1552,692	-69,92	
1552,694	-68,28	
1552,696	-68,70	
1552,698	-72,97	
1552,700	-72,97	
1552,702	-72,97	
1552,704	-72,97	
1552,706	-72,97	
1552,708	-72,15	
1552,710	-72,97	
1552,712	-67,64	
1552,714	-70,75	
1552,716	-72,79	
1552,718	-72,97	
1552,720	-72,97	
1552,722	-70,66	
1552,724	-72,97	
1552,726	-72,79	
1552,728	-72,97	
1552,730	-72,97	
1552,732	-72,97	
1552,734	-72,97	
1552,736	-72,97	
1552,738	-71,21	
1552,740	-71,76	
1552,742	-72,97	
1552,744	-70,94	
1552,746	-68,04	
1552,748	-72,97	
1552,750	-72,97	
1552,752	-72,97	
1552,754	-72,97	
1552,756	-72,97	
1552,758	-72,97	
1552,760	-71,19	
1552,762	-70,24	
1552,764	-68,95	
1552,766	-70,03	
1552,768	-72,97	
1552,770	-72,97	
1552,772	-72,97	
1552,774	-72,52	
1552,776	-69,61	
1552,778	-69,04	
1552,780	-72,97	
1552,782	-72,97	
1552,784	-72,97	
1552,786	-72,97	
1552,788	-72,97	
1552,790	-72,97	
1552,792	-72,97	
1552,794	-72,97	
1552,796	-72,97	
1552,798	-72,90	
1552,800	-72,97	
1552,802	-72,07	
1552,804	-68,42	
1552,806	-69,09	
1552,808	-72,97	
1552,810	-72,97	
1552,812	-69,26	
1552,814	-72,97	
1552,816	-72,97	
1552,818	-72,97	
1552,820	-72,97	
1552,822	-72,97	
1552,824	-72,97	
1552,826	-71,82	
1552,828	-72,71	
1552,830	-72,97	
1552,832	-69,45	
1552,834	-72,97	
1552,836	-72,97	
1552,838	-71,60	
1552,840	-68,61	
1552,842	-71,75	
1552,844	-72,97	
1552,846	-72,97	
1552,848	-72,34	
1552,850	-68,88	
1552,852	-70,30	
1552,854	-72,59	
1552,856	-72,65	
1552,858	-71,25	
1552,860	-72,97	
1552,862	-72,97	
1552,864	-72,97	
1552,866	-72,97	
1552,868	-72,90	
1552,870	-71,93	
1552,872	-72,97	
1552,874	-72,97	
1552,876	-72,97	
1552,878	-72,97	
1552,880	-72,97	
1552,882	-72,97	
1552,884	-72,97	
1552,886	-72,97	
1552,888	-72,97	
1552,890	-70,30	
1552,892	-68,67	
1552,894	-70,40	
1552,896	-70,27	
1552,898	-72,97	
1552,900	-72,97	
1552,902	-72,97	
1552,904	-71,98	
1552,906	-72,97	
1552,908	-72,97	
1552,910	-72,97	
1552,912	-69,39	
1552,914	-72,97	
1552,916	-72,97	
1552,918	-68,89	
1552,920	-69,81	
1552,922	-70,84	
1552,924	-69,58	
1552,926	-72,97	
1552,928	-71,38	
1552,930	-71,67	
1552,932	-72,93	
1552,934	-72,97	
1552,936	-72,97	
1552,938	-70,53	
1552,940	-72,97	
1552,942	-72,97	
1552,944	-72,97	
1552,946	-71,72	
1552,948	-69,65	
1552,950	-69,22	
1552,952	-69,76	
1552,954	-69,16	
1552,956	-72,97	
1552,958	-72,97	
1552,960	-71,59	
1552,962	-72,97	
1552,964	-70,73	
1552,966	-72,97	
1552,968	-72,69	
1552,970	-72,97	
1552,972	-71,15	
1552,974	-70,71	
1552,976	-72,97	
1552,978	-72,97	
1552,980	-72,97	
1552,982	-72,97	
1552,984	-72,97	
1552,986	-72,97	
1552,988	-72,97	
1552,990	-72,97	
1552,992	-72,97	
1552,994	-72,97	
1552,996	-72,97	
1552,998	-72,97	
1553,000	-72,97	
1553,002	-69,99	
1553,004	-72,97	
1553,006	-70,19	
1553,008	-69,12	
1553,010	-72,48	
1553,012	-72,97	
1553,014	-72,97	
1553,016	-72,97	
1553,018	-72,97	
1553,020	-70,52	
1553,022	-72,97	
1553,024	-72,65	
1553,026	-68,64	
1553,028	-72,97	
1553,030	-72,97	
1553,032	-72,97	
1553,034	-72,97	
1553,036	-68,76	
1553,038	-67,51	
1553,040	-72,67	
1553,042	-68,82	
1553,044	-72,97	
1553,046	-72,97	
1553,048	-72,97	
1553,050	-72,97	
1553,052	-72,97	
1553,054	-72,97	
1553,056	-72,97	
1553,058	-72,97	
1553,060	-72,97	
1553,062	-72,97	
1553,064	-72,97	
1553,066	-69,44	
1553,068	-71,74	
1553,070	-72,97	
1553,072	-70,43	
1553,074	-72,09	
1553,076	-69,30	
1553,078	-72,97	
1553,080	-72,97	
1553,082	-72,97	
1553,084	-72,97	
1553,086	-71,23	
1553,088	-68,46	
1553,090	-68,47	
1553,092	-70,02	
1553,094	-72,97	
1553,096	-72,97	
1553,098	-72,97	
1553,100	-70,81	
1553,102	-72,97	
1553,104	-71,43	
1553,106	-72,97	
1553,108	-72,97	
1553,110	-70,18	
1553,112	-69,77	
1553,114	-71,87	
1553,116	-72,73	
1553,118	-72,97	
1553,120	-69,78	
1553,122	-72,97	
1553,124	-72,01	
1553,126	-72,97	
1553,128	-72,97	
1553,130	-72,97	
1553,132	-68,51	
1553,134	-71,90	
1553,136	-72,97	
1553,138	-72,97	
1553,140	-72,97	
1553,142	-72,97	
1553,144	-72,97	
1553,146	-72,97	
1553,148	-71,45	
1553,150	-72,97	
1553,152	-68,89	
1553,154	-72,97	
1553,156	-72,97	
1553,158	-72,97	
1553,160	-72,97	
1553,162	-72,97	
1553,164	-72,97	
1553,166	-71,60	
1553,168	-72,97	
1553,170	-72,97	
1553,172	-72,97	
1553,174	-72,97	
1553,176	-72,97	
1553,178	-68,57	
1553,180	-72,97	
1553,182	-72,97	
1553,184	-72,97	
1553,186	-72,97	
1553,188	-72,97	
1553,190	-72,97	
1553,192	-72,97	
1553,194	-68,25	
1553,196	-69,46	
1553,198	-66,20	
1553,200	-67,90	
1553,202	-70,00	
1553,204	-70,48	
1553,206	-72,97	
1553,208	-72,97	
1553,210	-72,97	
1553,212	-72,29	
1553,214	-72,97	
1553,216	-70,16	
1553,218	-72,08	
1553,220	-72,97	
1553,222	-72,97	
1553,224	-71,38	
1553,226	-72,97	
1553,228	-72,97	
1553,230	-72,95	
1553,232	-72,97	
1553,234	-71,48	
1553,236	-72,97	
1553,238	-71,52	
1553,240	-69,17	
1553,242	-72,97	
1553,244	-72,97	
1553,246	-72,97	
1553,248	-72,97	
1553,250	-72,97	
1553,252	-72,97	
1553,254	-69,74	
1553,256	-72,97	
1553,258	-72,97	
1553,260	-67,66	
1553,262	-69,18	
1553,264	-72,90	
1553,266	-71,19	
1553,268	-72,97	
1553,270	-72,97	
1553,272	-71,38	
1553,274	-72,97	
1553,276	-72,97	
1553,278	-71,67	
1553,280	-72,97	
1553,282	-72,97	
1553,284	-68,30	
1553,286	-69,58	
1553,288	-72,97	
1553,290	-72,97	
1553,292	-69,41	
1553,294	-71,84	
1553,296	-72,97	
1553,298	-72,97	
1553,300	-71,83	
1553,302	-70,88	
1553,304	-70,73	
1553,306	-72,97	
1553,308	-69,43	
1553,310	-72,97	
1553,312	-72,97	
1553,314	-72,97	
1553,316	-72,97	
1553,318	-72,97	
1553,320	-72,97	
1553,322	-72,54	
1553,324	-72,97	
1553,326	-68,51	
1553,328	-71,14	
1553,330	-66,98	
1553,332	-67,79	
1553,334	-70,21	
1553,336	-72,97	
1553,338	-71,85	
1553,340	-68,29	
1553,342	-72,97	
1553,344	-72,97	
1553,346	-72,97	
1553,348	-72,97	
1553,350	-72,97	
1553,352	-72,97	
1553,354	-72,97	
1553,356	-72,97	
1553,358	-71,97	
1553,360	-67,64	
1553,362	-66,83	
1553,364	-70,69	
1553,366	-72,97	
1553,368	-72,97	
1553,370	-72,97	
1553,372	-72,97	
1553,374	-72,97	
1553,376	-72,97	
1553,378	-68,97	
1553,380	-70,10	
1553,382	-72,37	
1553,384	-71,81	
1553,386	-68,94	
1553,388	-69,40	
1553,390	-72,97	
1553,392	-72,97	
1553,394	-72,97	
1553,396	-72,12	
1553,398	-72,97	
1553,400	-72,97	
1553,402	-71,57	
1553,404	-68,31	
1553,406	-69,64	
1553,408	-72,97	
1553,410	-72,97	
1553,412	-72,97	
1553,414	-72,97	
1553,416	-72,97	
1553,418	-72,97	
1553,420	-72,50	
1553,422	-72,97	
1553,424	-72,97	
1553,426	-72,87	
1553,428	-72,97	
1553,430	-72,97	
1553,432	-69,71	
1553,434	-70,88	
1553,436	-72,54	
1553,438	-72,92	
1553,440	-72,97	
1553,442	-72,97	
1553,444	-72,97	
1553,446	-72,97	
1553,448	-72,97	
1553,450	-72,97	
1553,452	-72,97	
1553,454	-72,97	
1553,456	-67,69	
1553,458	-71,51	
1553,460	-72,17	
1553,462	-72,97	
1553,464	-71,10	
1553,466	-72,93	
1553,468	-72,97	
1553,470	-72,97	
1553,472	-72,97	
1553,474	-72,13	
1553,476	-72,30	
1553,478	-72,97	
1553,480	-68,69	
1553,482	-70,02	
1553,484	-72,42	
1553,486	-72,97	
1553,488	-72,97	
1553,490	-72,97	
1553,492	-68,07	
1553,494	-72,97	
1553,496	-72,97	
1553,498	-72,97	
1553,500	-72,55	
1553,502	-72,97	
1553,504	-72,97	
1553,506	-72,97	
1553,508	-70,57	
1553,510	-67,33	
1553,512	-72,97	
1553,514	-72,97	
1553,516	-69,00	
1553,518	-68,08	
1553,520	-72,97	
1553,522	-72,18	
1553,524	-72,97	
1553,526	-71,11	
1553,528	-72,97	
1553,530	-72,97	
1553,532	-70,83	
1553,534	-72,97	
1553,536	-72,13	
1553,538	-72,39	
1553,540	-69,39	
1553,542	-69,41	
1553,544	-72,97	
1553,546	-72,97	
1553,548	-72,97	
1553,550	-72,97	
1553,552	-72,51	
1553,554	-72,51	
1553,556	-72,97	
1553,558	-71,34	
1553,560	-65,09	
1553,562	-67,84	
1553,564	-68,77	
1553,566	-65,96	
1553,568	-72,97	
1553,570	-72,97	
1553,572	-72,97	
1553,574	-72,97	
1553,576	-72,97	
1553,578	-72,97	
1553,580	-72,97	
1553,582	-72,97	
1553,584	-72,97	
1553,586	-72,97	
1553,588	-69,33	
1553,590	-71,39	
1553,592	-72,62	
1553,594	-72,97	
1553,596	-70,62	
1553,598	-69,31	
1553,600	-69,27	
1553,602	-69,59	
1553,604	-72,30	
1553,606	-72,97	
1553,608	-72,97	
1553,610	-70,06	
1553,612	-69,68	
1553,614	-72,97	
1553,616	-72,97	
1553,618	-72,97	
1553,620	-72,97	
1553,622	-72,45	
1553,624	-72,97	
1553,626	-72,97	
1553,628	-68,76	
1553,630	-67,78	
1553,632	-68,84	
1553,634	-71,21	
1553,636	-72,97	
1553,638	-72,97	
1553,640	-72,97	
1553,642	-72,97	
1553,644	-72,97	
1553,646	-72,14	
1553,648	-70,80	
1553,650	-69,86	
1553,652	-70,35	
1553,654	-69,86	
1553,656	-66,88	
1553,658	-66,58	
1553,660	-71,65	
1553,662	-72,97	
1553,664	-72,97	
1553,666	-72,97	
1553,668	-72,97	
1553,670	-72,97	
1553,672	-72,97	
1553,674	-72,97	
1553,676	-72,97	
1553,678	-72,60	
1553,680	-72,97	
1553,682	-72,97	
1553,684	-69,44	
1553,686	-72,42	
1553,688	-67,64	
1553,690	-69,78	
1553,692	-72,85	
1553,694	-72,20	
1553,696	-71,51	
1553,698	-72,04	
1553,700	-72,97	
1553,702	-72,97	
1553,704	-72,97	
1553,706	-72,73	
1553,708	-72,97	
1553,710	-72,97	
1553,712	-67,87	
1553,714	-67,04	
1553,716	-70,90	
1553,718	-72,60	
1553,720	-72,01	
1553,722	-72,97	
1553,724	-72,97	
1553,726	-72,97	
1553,728	-72,97	
1553,730	-72,81	
1553,732	-72,80	
1553,734	-72,97	
1553,736	-69,93	
1553,738	-71,24	
1553,740	-72,97	
1553,742	-72,87	
1553,744	-71,25	
1553,746	-70,20	
1553,748	-70,91	
1553,750	-72,97	
1553,752	-72,37	
1553,754	-72,97	
1553,756	-71,24	
1553,758	-72,97	
1553,760	-72,97	
1553,762	-72,97	
1553,764	-72,97	
1553,766	-72,97	
1553,768	-70,74	
1553,770	-72,97	
1553,772	-72,97	
1553,774	-72,97	
1553,776	-72,97	
1553,778	-72,97	
1553,780	-72,97	
1553,782	-71,23	
1553,784	-72,97	
1553,786	-72,97	
1553,788	-72,97	
1553,790	-70,73	
1553,792	-68,14	
1553,794	-72,97	
1553,796	-69,93	
1553,798	-69,97	
1553,800	-72,97	
1553,802	-72,97	
1553,804	-71,80	
1553,806	-68,71	
1553,808	-71,11	
1553,810	-71,03	
1553,812	-71,03	
1553,814	-72,97	
1553,816	-69,92	
1553,818	-70,16	
1553,820	-72,97	
1553,822	-72,97	
1553,824	-72,97	
1553,826	-72,97	
1553,828	-72,97	
1553,830	-72,97	
1553,832	-71,55	
1553,834	-72,97	
1553,836	-71,04	
1553,838	-72,97	
1553,840	-72,97	
1553,842	-70,30	
1553,844	-72,97	
1553,846	-72,97	
1553,848	-72,97	
1553,850	-72,97	
1553,852	-72,97	
1553,854	-72,13	
1553,856	-70,35	
1553,858	-72,97	
1553,860	-72,97	
1553,862	-71,17	
1553,864	-72,97	
1553,866	-71,22	
1553,868	-71,73	
1553,870	-72,97	
1553,872	-72,97	
1553,874	-72,97	
1553,876	-72,62	
1553,878	-72,56	
1553,880	-72,97	
1553,882	-72,97	
1553,884	-72,97	
1553,886	-72,97	
1553,888	-72,97	
1553,890	-72,97	
1553,892	-72,97	
1553,894	-72,97	
1553,896	-70,50	
1553,898	-72,06	
1553,900	-70,14	
1553,902	-71,75	
1553,904	-72,97	
1553,906	-72,15	
1553,908	-68,08	
1553,910	-69,76	
1553,912	-71,92	
1553,914	-70,88	
1553,916	-71,41	
1553,918	-72,97	
1553,920	-72,97	
1553,922	-72,97	
1553,924	-72,97	
1553,926	-66,67	
1553,928	-68,98	
1553,930	-72,97	
1553,932	-72,97	
1553,934	-71,19	
1553,936	-68,45	
1553,938	-68,36	
1553,940	-69,38	
1553,942	-71,28	
1553,944	-72,97	
1553,946	-72,97	
1553,948	-72,97	
1553,950	-72,97	
1553,952	-72,97	
1553,954	-70,02	
1553,956	-71,46	
1553,958	-72,97	
1553,960	-71,47	
1553,962	-67,72	
1553,964	-69,43	
1553,966	-72,97	
1553,968	-72,97	
1553,970	-72,97	
1553,972	-68,42	
1553,974	-68,45	
1553,976	-72,81	
1553,978	-72,97	
1553,980	-72,97	
1553,982	-72,97	
1553,984	-72,97	
1553,986	-72,97	
1553,988	-72,97	
1553,990	-72,97	
1553,992	-72,97	
1553,994	-72,97	
1553,996	-70,63	
1553,998	-72,97	
1554,000	-72,63	
1554,002	-72,97	
1554,004	-72,97	
1554,006	-72,97	
1554,008	-72,97	
1554,010	-72,76	
1554,012	-72,52	
1554,014	-72,97	
1554,016	-72,97	
1554,018	-72,97	
1554,020	-67,69	
1554,022	-68,72	
1554,024	-71,98	
1554,026	-69,57	
1554,028	-72,97	
1554,030	-72,97	
1554,032	-72,97	
1554,034	-72,97	
1554,036	-72,97	
1554,038	-72,97	
1554,040	-72,97	
1554,042	-70,51	
1554,044	-71,74	
1554,046	-71,29	
1554,048	-71,32	
1554,050	-72,97	
1554,052	-69,58	
1554,054	-72,97	
1554,056	-72,97	
1554,058	-72,97	
1554,060	-71,45	
1554,062	-72,11	
1554,064	-72,44	
1554,066	-72,86	
1554,068	-68,94	
1554,070	-72,10	
1554,072	-72,97	
1554,074	-72,97	
1554,076	-72,97	
1554,078	-72,97	
1554,080	-72,97	
1554,082	-72,97	
1554,084	-70,10	
1554,086	-70,51	
1554,088	-66,45	
1554,090	-70,75	
1554,092	-70,80	
1554,094	-70,08	
1554,096	-68,32	
1554,098	-72,97	
1554,100	-72,97	
1554,102	-72,97	
1554,104	-71,55	
1554,106	-72,97	
1554,108	-70,53	
1554,110	-69,75	
1554,112	-72,97	
1554,114	-72,97	
1554,116	-72,97	
1554,118	-72,97	
1554,120	-72,97	
1554,122	-72,97	
1554,124	-72,97	
1554,126	-72,97	
1554,128	-72,97	
1554,130	-72,97	
1554,132	-70,63	
1554,134	-69,47	
1554,136	-71,24	
1554,138	-72,97	
1554,140	-72,97	
1554,142	-70,57	
1554,144	-71,52	
1554,146	-72,97	
1554,148	-66,40	
1554,150	-69,23	
1554,152	-72,88	
1554,154	-72,68	
1554,156	-72,78	
1554,158	-72,97	
1554,160	-72,97	
1554,162	-72,97	
1554,164	-72,95	
1554,166	-72,97	
1554,168	-72,97	
1554,170	-72,64	
1554,172	-71,86	
1554,174	-70,54	
1554,176	-68,55	
1554,178	-67,19	
1554,180	-66,36	
1554,182	-67,35	
1554,184	-72,06	
1554,186	-72,97	
1554,188	-72,97	
1554,190	-72,97	
1554,192	-72,97	
1554,194	-72,97	
1554,196	-72,97	
1554,198	-72,97	
1554,200	-70,56	
1554,202	-72,97	
1554,204	-72,97	
1554,206	-72,97	
1554,208	-72,97	
1554,210	-71,21	
1554,212	-68,67	
1554,214	-72,97	
1554,216	-72,97	
1554,218	-72,97	
1554,220	-69,68	
1554,222	-66,75	
1554,224	-72,97	
1554,226	-72,97	
1554,228	-72,97	
1554,230	-72,97	
1554,232	-70,69	
1554,234	-72,34	
1554,236	-72,34	
1554,238	-72,97	
1554,240	-70,41	
1554,242	-72,97	
1554,244	-72,97	
1554,246	-72,97	
1554,248	-72,97	
1554,250	-72,78	
1554,252	-71,11	
1554,254	-70,54	
1554,256	-72,97	
1554,258	-72,97	
1554,260	-72,97	
1554,262	-72,97	
1554,264	-72,97	
1554,266	-72,97	
1554,268	-72,97	
1554,270	-70,43	
1554,272	-72,97	
1554,274	-70,45	
1554,276	-72,97	
1554,278	-72,97	
1554,280	-71,02	
1554,282	-72,97	
1554,284	-71,13	
1554,286	-70,21	
1554,288	-72,97	
1554,290	-72,97	
1554,292	-72,97	
1554,294	-71,12	
1554,296	-71,06	
1554,298	-72,97	
1554,300	-66,33	
1554,302	-72,75	
1554,304	-72,51	
1554,306	-72,97	
1554,308	-72,97	
1554,310	-72,97	
1554,312	-71,04	
1554,314	-69,41	
1554,316	-72,97	
1554,318	-72,97	
1554,320	-70,77	
1554,322	-72,97	
1554,324	-69,20	
1554,326	-69,99	
1554,328	-72,85	
1554,330	-72,19	
1554,332	-72,97	
1554,334	-68,37	
1554,336	-67,76	
1554,338	-72,97	
1554,340	-72,97	
1554,342	-72,97	
1554,344	-72,97	
1554,346	-72,97	
1554,348	-72,97	
1554,350	-72,97	
1554,352	-72,97	
1554,354	-72,78	
1554,356	-67,04	
1554,358	-72,97	
1554,360	-70,40	
1554,362	-67,62	
1554,364	-72,97	
1554,366	-69,30	
1554,368	-70,30	
1554,370	-70,39	
1554,372	-68,72	
1554,374	-72,83	
1554,376	-70,13	
1554,378	-71,02	
1554,380	-72,36	
1554,382	-72,97	
1554,384	-72,97	
1554,386	-68,79	
1554,388	-71,67	
1554,390	-71,54	
1554,392	-72,65	
1554,394	-72,97	
1554,396	-72,97	
1554,398	-72,97	
1554,400	-70,45	
1554,402	-70,46	
1554,404	-72,97	
1554,406	-72,97	
1554,408	-72,97	
1554,410	-72,97	
1554,412	-72,97	
1554,414	-72,97	
1554,416	-72,29	
1554,418	-72,97	
1554,420	-72,97	
1554,422	-72,97	
1554,424	-72,97	
1554,426	-71,90	
1554,428	-72,97	
1554,430	-72,97	
1554,432	-72,97	
1554,434	-71,73	
1554,436	-68,71	
1554,438	-68,72	
1554,440	-70,49	
1554,442	-72,97	
1554,444	-72,97	
1554,446	-72,97	
1554,448	-72,97	
1554,450	-70,62	
1554,452	-72,97	
1554,454	-72,97	
1554,456	-72,63	
1554,458	-72,97	
1554,460	-72,97	
1554,462	-72,97	
1554,464	-72,97	
1554,466	-72,71	
1554,468	-71,23	
1554,470	-70,52	
1554,472	-72,72	
1554,474	-68,81	
1554,476	-72,97	
1554,478	-70,77	
1554,480	-72,97	
1554,482	-72,97	
1554,484	-71,25	
1554,486	-71,92	
1554,488	-68,84	
1554,490	-72,97	
1554,492	-72,97	
1554,494	-72,97	
1554,496	-68,97	
1554,498	-71,02	
1554,500	-67,60	
1554,502	-71,47	
1554,504	-72,97	
1554,506	-72,97	
1554,508	-72,97	
1554,510	-72,20	
1554,512	-72,97	
1554,514	-72,97	
1554,516	-70,89	
1554,518	-72,97	
1554,520	-72,97	
1554,522	-72,97	
1554,524	-72,97	
1554,526	-72,97	
1554,528	-70,51	
1554,530	-72,97	
1554,532	-72,97	
1554,534	-72,97	
1554,536	-72,97	
1554,538	-71,20	
1554,540	-72,50	
1554,542	-70,79	
1554,544	-68,60	
1554,546	-72,97	
1554,548	-70,57	
1554,550	-71,04	
1554,552	-72,97	
1554,554	-69,46	
1554,556	-71,36	
1554,558	-72,97	
1554,560	-72,97	
1554,562	-72,97	
1554,564	-72,97	
1554,566	-72,97	
1554,568	-72,14	
1554,570	-72,97	
1554,572	-72,97	
1554,574	-72,97	
1554,576	-72,97	
1554,578	-72,97	
1554,580	-72,97	
1554,582	-69,90	
1554,584	-68,46	
1554,586	-68,89	
1554,588	-67,83	
1554,590	-72,97	
1554,592	-72,97	
1554,594	-72,97	
1554,596	-72,97	
1554,598	-72,97	
1554,600	-72,97	
1554,602	-70,91	
1554,604	-68,43	
1554,606	-72,97	
1554,608	-69,66	
1554,610	-72,97	
1554,612	-67,85	
1554,614	-70,67	
1554,616	-72,97	
1554,618	-72,12	
1554,620	-72,97	
1554,622	-72,97	
1554,624	-70,64	
1554,626	-68,08	
1554,628	-69,11	
1554,630	-67,79	
1554,632	-72,97	
1554,634	-72,97	
1554,636	-72,97	
1554,638	-71,44	
1554,640	-72,97	
1554,642	-72,40	
1554,644	-70,92	
1554,646	-71,96	
1554,648	-72,89	
1554,650	-69,51	
1554,652	-68,49	
1554,654	-70,64	
1554,656	-72,97	
1554,658	-72,97	
1554,660	-72,97	
1554,662	-72,97	
1554,664	-72,97	
1554,666	-72,97	
1554,668	-72,97	
1554,670	-71,30	
1554,672	-72,97	
1554,674	-68,65	
1554,676	-68,83	
1554,678	-72,97	
1554,680	-70,01	
1554,682	-68,27	
1554,684	-69,98	
1554,686	-71,71	
1554,688	-71,76	
1554,690	-68,26	
1554,692	-69,18	
1554,694	-68,21	
1554,696	-69,29	
1554,698	-72,97	
1554,700	-72,97	
1554,702	-72,97	
1554,704	-72,38	
1554,706	-72,97	
1554,708	-72,97	
1554,710	-72,97	
1554,712	-72,97	
1554,714	-70,03	
1554,716	-72,43	
1554,718	-72,97	
1554,720	-72,71	
1554,722	-69,45	
1554,724	-72,97	
1554,726	-72,97	
1554,728	-72,97	
1554,730	-72,97	
1554,732	-72,97	
1554,734	-72,73	
1554,736	-70,32	
1554,738	-69,64	
1554,740	-72,97	
1554,742	-69,82	
1554,744	-67,63	
1554,746	-68,42	
1554,748	-72,97	
1554,750	-72,97	
1554,752	-72,97	
1554,754	-71,37	
1554,756	-71,41	
1554,758	-72,97	
1554,760	-71,17	
1554,762	-72,40	
1554,764	-72,97	
1554,766	-72,97	
1554,768	-72,97	
1554,770	-72,97	
1554,772	-70,46	
1554,774	-71,91	
1554,776	-72,97	
1554,778	-71,05	
1554,780	-70,16	
1554,782	-71,00	
1554,784	-72,97	
1554,786	-72,97	
1554,788	-72,97	
1554,790	-72,97	
1554,792	-72,97	
1554,794	-72,97	
1554,796	-72,97	
1554,798	-72,97	
1554,800	-72,10	
1554,802	-72,56	
1554,804	-71,40	
1554,806	-71,88	
1554,808	-72,68	
1554,810	-72,02	
1554,812	-69,07	
1554,814	-72,97	
1554,816	-72,66	
1554,818	-72,97	
1554,820	-72,97	
1554,822	-72,97	
1554,824	-72,97	
1554,826	-71,18	
1554,828	-72,97	
1554,830	-72,97	
1554,832	-72,52	
1554,834	-70,93	
1554,836	-72,97	
1554,838	-72,97	
1554,840	-72,97	
1554,842	-72,97	
1554,844	-72,97	
1554,846	-70,48	
1554,848	-72,97	
1554,850	-72,97	
1554,852	-72,97	
1554,854	-72,97	
1554,856	-72,97	
1554,858	-72,97	
1554,860	-72,97	
1554,862	-70,11	
1554,864	-67,06	
1554,866	-68,82	
1554,868	-71,08	
1554,870	-70,59	
1554,872	-72,97	
1554,874	-72,97	
1554,876	-72,97	
1554,878	-72,97	
1554,880	-72,27	
1554,882	-72,97	
1554,884	-72,97	
1554,886	-69,60	
1554,888	-68,93	
1554,890	-71,49	
1554,892	-72,97	
1554,894	-72,97	
1554,896	-72,97	
1554,898	-72,97	
1554,900	-72,97	
1554,902	-72,97	
1554,904	-72,97	
1554,906	-69,47	
1554,908	-69,23	
1554,910	-72,97	
1554,912	-72,97	
1554,914	-72,97	
1554,916	-72,97	
1554,918	-72,97	
1554,920	-70,98	
1554,922	-70,09	
1554,924	-72,97	
1554,926	-72,97	
1554,928	-72,97	
1554,930	-72,97	
1554,932	-72,97	
1554,934	-68,59	
1554,936	-72,97	
1554,938	-72,97	
1554,940	-70,74	
1554,942	-72,97	
1554,944	-72,97	
1554,946	-72,97	
1554,948	-72,97	
1554,950	-72,97	
1554,952	-72,97	
1554,954	-72,97	
1554,956	-72,43	
1554,958	-72,97	
1554,960	-70,72	
1554,962	-70,96	
1554,964	-72,97	
1554,966	-71,45	
1554,968	-72,97	
1554,970	-72,97	
1554,972	-72,97	
1554,974	-72,97	
1554,976	-72,97	
1554,978	-72,97	
1554,980	-69,49	
1554,982	-67,48	
1554,984	-67,47	
1554,986	-68,51	
1554,988	-70,97	
1554,990	-72,97	
1554,992	-71,07	
1554,994	-69,73	
1554,996	-72,97	
1554,998	-72,97	
1555,000	-72,97	
1555,002	-72,97	
1555,004	-72,97	
1555,006	-72,97	
1555,008	-72,97	
1555,010	-72,97	
1555,012	-72,97	
1555,014	-69,61	
1555,016	-72,97	
1555,018	-72,00	
1555,020	-72,97	
1555,022	-72,97	
1555,024	-72,97	
1555,026	-72,11	
1555,028	-68,78	
1555,030	-69,93	
1555,032	-72,71	
1555,034	-72,97	
1555,036	-72,97	
1555,038	-72,97	
1555,040	-72,97	
1555,042	-72,97	
1555,044	-70,02	
1555,046	-72,97	
1555,048	-72,97	
1555,050	-72,97	
1555,052	-70,56	
1555,054	-72,97	
1555,056	-72,97	
1555,058	-71,51	
1555,060	-69,34	
1555,062	-72,97	
1555,064	-70,70	
1555,066	-67,00	
1555,068	-66,92	
1555,070	-66,65	
1555,072	-72,97	
1555,074	-72,97	
1555,076	-72,97	
1555,078	-72,97	
1555,080	-72,97	
1555,082	-70,41	
1555,084	-72,97	
1555,086	-72,97	
1555,088	-69,98	
1555,090	-68,52	
1555,092	-68,28	
1555,094	-68,94	
1555,096	-72,97	
1555,098	-72,97	
1555,100	-72,97	
1555,102	-72,97	
1555,104	-72,97	
1555,106	-71,62	
1555,108	-69,13	
1555,110	-72,69	
1555,112	-72,97	
1555,114	-72,13	
1555,116	-68,32	
1555,118	-67,33	
1555,120	-67,38	
1555,122	-68,02	
1555,124	-68,60	
1555,126	-72,97	
1555,128	-72,97	
1555,130	-70,53	
1555,132	-72,97	
1555,134	-72,97	
1555,136	-71,42	
1555,138	-72,97	
1555,140	-72,97	
1555,142	-72,97	
1555,144	-72,03	
1555,146	-70,74	
1555,148	-70,57	
1555,150	-71,21	
1555,152	-72,97	
1555,154	-72,97	
1555,156	-72,97	
1555,158	-72,97	
1555,160	-72,97	
1555,162	-72,97	
1555,164	-72,97	
1555,166	-72,97	
1555,168	-72,97	
1555,170	-71,12	
1555,172	-70,37	
1555,174	-69,34	
1555,176	-71,92	
1555,178	-72,97	
1555,180	-71,47	
1555,182	-68,15	
1555,184	-72,07	
1555,186	-72,82	
1555,188	-72,97	
1555,190	-72,97	
1555,192	-70,85	
1555,194	-72,97	
1555,196	-72,97	
1555,198	-72,97	
1555,200	-72,97	
1555,202	-72,71	
1555,204	-69,32	
1555,206	-69,45	
1555,208	-69,57	
1555,210	-72,97	
1555,212	-72,97	
1555,214	-72,97	
1555,216	-72,97	
1555,218	-72,97	
1555,220	-72,52	
1555,222	-71,19	
1555,224	-72,97	
1555,226	-70,47	
1555,228	-70,54	
1555,230	-72,97	
1555,232	-70,48	
1555,234	-70,25	
1555,236	-72,97	
1555,238	-72,97	
1555,240	-72,97	
1555,242	-72,97	
1555,244	-69,64	
1555,246	-69,15	
1555,248	-70,00	
1555,250	-72,17	
1555,252	-70,76	
1555,254	-70,42	
1555,256	-71,71	
1555,258	-69,73	
1555,260	-72,97	
1555,262	-72,97	
1555,264	-71,91	
1555,266	-72,97	
1555,268	-70,76	
1555,270	-67,66	
1555,272	-65,77	
1555,274	-71,01	
1555,276	-72,97	
1555,278	-72,97	
1555,280	-72,97	
1555,282	-72,97	
1555,284	-72,97	
1555,286	-72,97	
1555,288	-72,97	
1555,290	-72,74	
1555,292	-69,49	
1555,294	-66,38	
1555,296	-68,09	
1555,298	-72,77	
1555,300	-72,97	
1555,302	-72,97	
1555,304	-72,97	
1555,306	-72,97	
1555,308	-71,23	
1555,310	-72,97	
1555,312	-72,97	
1555,314	-72,97	
1555,316	-72,97	
1555,318	-71,62	
1555,320	-70,36	
1555,322	-72,97	
1555,324	-71,61	
1555,326	-72,97	
1555,328	-72,97	
1555,330	-72,97	
1555,332	-72,97	
1555,334	-71,70	
1555,336	-72,97	
1555,338	-70,07	
1555,340	-72,97	
1555,342	-72,97	
1555,344	-70,10	
1555,346	-72,97	
1555,348	-71,96	
1555,350	-72,97	
1555,352	-72,97	
1555,354	-72,97	
1555,356	-72,97	
1555,358	-72,57	
1555,360	-70,22	
1555,362	-71,10	
1555,364	-72,97	
1555,366	-72,09	
1555,368	-72,97	
1555,370	-69,25	
1555,372	-72,97	
1555,374	-71,31	
1555,376	-70,09	
1555,378	-72,97	
1555,380	-72,97	
1555,382	-72,97	
1555,384	-72,97	
1555,386	-72,97	
1555,388	-72,97	
1555,390	-72,29	
1555,392	-69,84	
1555,394	-72,97	
1555,396	-70,81	
1555,398	-72,97	
1555,400	-70,05	
1555,402	-68,60	
1555,404	-66,71	
1555,406	-68,95	
1555,408	-69,53	
1555,410	-72,97	
1555,412	-69,23	
1555,414	-69,02	
1555,416	-72,97	
1555,418	-72,29	
1555,420	-72,97	
1555,422	-70,54	
1555,424	-69,19	
1555,426	-70,38	
1555,428	-72,97	
1555,430	-72,97	
1555,432	-70,41	
1555,434	-72,16	
1555,436	-71,76	
1555,438	-72,97	
1555,440	-72,97	
1555,442	-71,10	
1555,444	-72,97	
1555,446	-72,97	
1555,448	-72,97	
1555,450	-72,97	
1555,452	-66,88	
1555,454	-72,97	
1555,456	-72,81	
1555,458	-69,64	
1555,460	-70,84	
1555,462	-72,97	
1555,464	-72,97	
1555,466	-72,32	
1555,468	-71,57	
1555,470	-72,91	
1555,472	-72,97	
1555,474	-72,97	
1555,476	-72,97	
1555,478	-72,97	
1555,480	-72,46	
1555,482	-72,45	
1555,484	-72,60	
1555,486	-72,02	
1555,488	-72,80	
1555,490	-69,27	
1555,492	-72,97	
1555,494	-70,89	
1555,496	-67,50	
1555,498	-72,41	
1555,500	-72,97	
1555,502	-72,97	
1555,504	-72,97	
1555,506	-72,97	
1555,508	-72,97	
1555,510	-72,97	
1555,512	-71,88	
1555,514	-68,87	
1555,516	-67,24	
1555,518	-72,97	
1555,520	-69,58	
1555,522	-72,97	
1555,524	-71,04	
1555,526	-72,97	
1555,528	-72,97	
1555,530	-72,97	
1555,532	-70,27	
1555,534	-69,81	
1555,536	-72,97	
1555,538	-69,45	
1555,540	-69,49	
1555,542	-71,30	
1555,544	-71,37	
1555,546	-71,86	
1555,548	-70,70	
1555,550	-72,97	
1555,552	-72,97	
1555,554	-72,97	
1555,556	-72,97	
1555,558	-72,97	
1555,560	-72,97	
1555,562	-72,97	
1555,564	-69,98	
1555,566	-71,70	
1555,568	-72,97	
1555,570	-72,97	
1555,572	-71,13	
1555,574	-72,66	
1555,576	-72,97	
1555,578	-72,69	
1555,580	-69,79	
1555,582	-72,97	
1555,584	-70,69	
1555,586	-69,36	
1555,588	-72,64	
1555,590	-72,97	
1555,592	-72,97	
1555,594	-71,94	
1555,596	-70,30	
1555,598	-68,32	
1555,600	-72,16	
1555,602	-72,97	
1555,604	-69,57	
1555,606	-72,02	
1555,608	-72,97	
1555,610	-72,97	
1555,612	-72,97	
1555,614	-70,88	
1555,616	-72,97	
1555,618	-69,44	
1555,620	-71,91	
1555,622	-72,21	
1555,624	-71,32	
1555,626	-70,27	
1555,628	-68,87	
1555,630	-72,97	
1555,632	-72,90	
1555,634	-72,97	
1555,636	-69,22	
1555,638	-68,91	
1555,640	-68,03	
1555,642	-69,48	
1555,644	-72,97	
1555,646	-72,97	
1555,648	-72,97	
1555,650	-72,97	
1555,652	-72,97	
1555,654	-68,85	
1555,656	-68,50	
1555,658	-67,94	
1555,660	-67,18	
1555,662	-72,97	
1555,664	-71,20	
1555,666	-72,97	
1555,668	-72,88	
1555,670	-67,41	
1555,672	-69,40	
1555,674	-72,97	
1555,676	-72,97	
1555,678	-72,97	
1555,680	-72,97	
1555,682	-72,97	
1555,684	-71,36	
1555,686	-72,97	
1555,688	-72,97	
1555,690	-72,97	
1555,692	-72,97	
1555,694	-72,97	
1555,696	-72,26	
1555,698	-72,24	
1555,700	-71,69	
1555,702	-72,22	
1555,704	-72,97	
1555,706	-68,95	
1555,708	-72,97	
1555,710	-72,97	
1555,712	-68,19	
1555,714	-72,22	
1555,716	-65,73	
1555,718	-69,15	
1555,720	-72,63	
1555,722	-72,97	
1555,724	-72,79	
1555,726	-72,63	
1555,728	-72,97	
1555,730	-72,97	
1555,732	-72,97	
1555,734	-71,69	
1555,736	-72,72	
1555,738	-72,97	
1555,740	-72,97	
1555,742	-72,97	
1555,744	-72,97	
1555,746	-68,74	
1555,748	-71,22	
1555,750	-68,35	
1555,752	-71,84	
1555,754	-72,20	
1555,756	-68,19	
1555,758	-72,97	
1555,760	-72,97	
1555,762	-72,97	
1555,764	-72,97	
1555,766	-72,97	
1555,768	-72,97	
1555,770	-72,97	
1555,772	-72,31	
1555,774	-71,09	
1555,776	-72,24	
1555,778	-70,05	
1555,780	-69,65	
1555,782	-72,97	
1555,784	-72,97	
1555,786	-68,88	
1555,788	-71,56	
1555,790	-68,80	
1555,792	-67,42	
1555,794	-69,54	
1555,796	-71,35	
1555,798	-69,29	
1555,800	-69,10	
1555,802	-72,97	
1555,804	-68,72	
1555,806	-69,57	
1555,808	-72,44	
1555,810	-72,97	
1555,812	-71,86	
1555,814	-68,92	
1555,816	-69,71	
1555,818	-69,39	
1555,820	-72,97	
1555,822	-72,97	
1555,824	-72,97	
1555,826	-72,97	
1555,828	-72,97	
1555,830	-68,26	
1555,832	-72,44	
1555,834	-72,97	
1555,836	-72,97	
1555,838	-72,97	
1555,840	-67,70	
1555,842	-72,09	
1555,844	-72,97	
1555,846	-71,51	
1555,848	-72,97	
1555,850	-72,97	
1555,852	-72,97	
1555,854	-72,97	
1555,856	-72,97	
1555,858	-72,97	
1555,860	-71,49	
1555,862	-69,04	
1555,864	-71,67	
1555,866	-70,30	
1555,868	-67,77	
1555,870	-67,12	
1555,872	-68,72	
1555,874	-70,96	
1555,876	-72,97	
1555,878	-72,97	
1555,880	-72,97	
1555,882	-72,97	
1555,884	-72,97	
1555,886	-72,97	
1555,888	-72,97	
1555,890	-72,97	
1555,892	-72,97	
1555,894	-72,97	
1555,896	-72,97	
1555,898	-69,44	
1555,900	-69,02	
1555,902	-72,97	
1555,904	-72,83	
1555,906	-72,97	
1555,908	-69,29	
1555,910	-68,61	
1555,912	-71,22	
1555,914	-71,96	
1555,916	-68,83	
1555,918	-70,24	
1555,920	-72,53	
1555,922	-72,97	
1555,924	-72,97	
1555,926	-72,97	
1555,928	-72,97	
1555,930	-68,21	
1555,932	-72,97	
1555,934	-71,96	
1555,936	-72,97	
1555,938	-72,97	
1555,940	-72,97	
1555,942	-72,97	
1555,944	-71,83	
1555,946	-72,97	
1555,948	-72,26	
1555,950	-71,64	
1555,952	-72,97	
1555,954	-72,97	
1555,956	-70,28	
1555,958	-72,97	
1555,960	-72,97	
1555,962	-72,26	
1555,964	-72,97	
1555,966	-72,97	
1555,968	-72,97	
1555,970	-72,97	
1555,972	-71,29	
1555,974	-70,97	
1555,976	-71,89	
1555,978	-72,63	
1555,980	-70,81	
1555,982	-67,70	
1555,984	-72,97	
1555,986	-67,98	
1555,988	-68,93	
1555,990	-72,59	
1555,992	-72,97	
1555,994	-72,97	
1555,996	-72,97	
1555,998	-72,97	
1556,000	-72,97	
1556,002	-69,94	
1556,004	-72,97	
1556,006	-72,97	
1556,008	-69,08	
1556,010	-70,95	
1556,012	-67,17	
1556,014	-69,99	
1556,016	-71,17	
1556,018	-72,97	
1556,020	-72,97	
1556,022	-72,97	
1556,024	-72,97	
1556,026	-72,97	
1556,028	-69,45	
1556,030	-68,82	
1556,032	-71,25	
1556,034	-72,97	
1556,036	-72,97	
1556,038	-69,45	
1556,040	-71,68	
1556,042	-72,35	
1556,044	-71,87	
1556,046	-72,97	
1556,048	-70,36	
1556,050	-68,84	
1556,052	-71,47	
1556,054	-68,69	
1556,056	-71,82	
1556,058	-72,97	
1556,060	-72,97	
1556,062	-72,97	
1556,064	-72,97	
1556,066	-72,97	
1556,068	-72,97	
1556,070	-70,71	
1556,072	-72,97	
1556,074	-71,64	
1556,076	-72,81	
1556,078	-71,30	
1556,080	-70,44	
1556,082	-71,28	
1556,084	-72,97	
1556,086	-72,97	
1556,088	-69,32	
1556,090	-69,11	
1556,092	-72,97	
1556,094	-72,97	
1556,096	-71,91	
1556,098	-72,97	
1556,100	-72,97	
1556,102	-72,97	
1556,104	-72,97	
1556,106	-71,98	
1556,108	-67,93	
1556,110	-70,25	
1556,112	-72,97	
1556,114	-72,97	
1556,116	-72,97	
1556,118	-71,70	
1556,120	-69,12	
1556,122	-70,01	
1556,124	-72,97	
1556,126	-72,39	
1556,128	-72,97	
1556,130	-71,59	
1556,132	-69,73	
1556,134	-68,94	
1556,136	-67,72	
1556,138	-72,92	
1556,140	-72,97	
1556,142	-72,97	
1556,144	-72,97	
1556,146	-67,97	
1556,148	-68,09	
1556,150	-72,97	
1556,152	-70,32	
1556,154	-72,97	
1556,156	-72,97	
1556,158	-67,92	
1556,160	-67,96	
1556,162	-69,73	
1556,164	-72,97	
1556,166	-72,97	
1556,168	-72,97	
1556,170	-72,97	
1556,172	-72,92	
1556,174	-69,08	
1556,176	-71,76	
1556,178	-72,97	
1556,180	-72,97	
1556,182	-72,97	
1556,184	-67,94	
1556,186	-72,97	
1556,188	-69,25	
1556,190	-70,85	
1556,192	-71,83	
1556,194	-71,65	
1556,196	-72,81	
1556,198	-71,62	
1556,200	-70,57	
1556,202	-72,97	
1556,204	-72,97	
1556,206	-72,97	
1556,208	-71,73	
1556,210	-72,97	
1556,212	-71,84	
1556,214	-70,16	
1556,216	-72,48	
1556,218	-72,97	
1556,220	-72,97	
1556,222	-72,97	
1556,224	-72,97	
1556,226	-72,97	
1556,228	-69,78	
1556,230	-71,09	
1556,232	-70,43	
1556,234	-70,42	
1556,236	-72,97	
1556,238	-72,97	
1556,240	-72,97	
1556,242	-72,97	
1556,244	-72,97	
1556,246	-72,97	
1556,248	-72,97	
1556,250	-68,90	
1556,252	-72,97	
1556,254	-72,42	
1556,256	-72,97	
1556,258	-72,97	
1556,260	-72,04	
1556,262	-72,97	
1556,264	-72,97	
1556,266	-72,97	
1556,268	-72,97	
1556,270	-72,97	
1556,272	-72,97	
1556,274	-68,88	
1556,276	-71,43	
1556,278	-72,97	
1556,280	-72,97	
1556,282	-69,87	
1556,284	-72,97	
1556,286	-72,97	
1556,288	-72,97	
1556,290	-71,26	
1556,292	-71,56	
1556,294	-72,97	
1556,296	-72,97	
1556,298	-71,42	
1556,300	-71,88	
1556,302	-67,51	
1556,304	-69,22	
1556,306	-71,88	
1556,308	-66,59	
1556,310	-72,97	
1556,312	-72,97	
1556,314	-72,00	
1556,316	-70,88	
1556,318	-72,97	
1556,320	-72,97	
1556,322	-72,97	
1556,324	-72,97	
1556,326	-72,97	
1556,328	-72,97	
1556,330	-72,97	
1556,332	-72,97	
1556,334	-71,96	
1556,336	-71,99	
1556,338	-69,12	
1556,340	-72,97	
1556,342	-72,97	
1556,344	-72,97	
1556,346	-72,97	
1556,348	-71,07	
1556,350	-72,97	
1556,352	-71,99	
1556,354	-67,40	
1556,356	-66,93	
1556,358	-72,97	
1556,360	-71,89	
1556,362	-69,68	
1556,364	-72,94	
1556,366	-72,97	
1556,368	-67,23	
1556,370	-71,39	
1556,372	-72,97	
1556,374	-72,37	
1556,376	-70,48	
1556,378	-69,66	
1556,380	-72,69	
1556,382	-69,29	
1556,384	-68,35	
1556,386	-71,73	
1556,388	-71,48	
1556,390	-72,97	
1556,392	-72,97	
1556,394	-71,62	
1556,396	-72,97	
1556,398	-72,97	
1556,400	-72,97	
1556,402	-71,11	
1556,404	-70,38	
1556,406	-70,91	
1556,408	-72,97	
1556,410	-72,97	
1556,412	-72,97	
1556,414	-72,97	
1556,416	-72,97	
1556,418	-72,97	
1556,420	-72,97	
1556,422	-71,38	
1556,424	-68,26	
1556,426	-69,52	
1556,428	-69,28	
1556,430	-66,91	
1556,432	-68,95	
1556,434	-69,88	
1556,436	-72,97	
1556,438	-70,36	
1556,440	-72,89	
1556,442	-70,04	
1556,444	-72,97	
1556,446	-72,97	
1556,448	-71,93	
1556,450	-72,97	
1556,452	-72,97	
1556,454	-72,97	
1556,456	-72,97	
1556,458	-72,97	
1556,460	-72,59	
1556,462	-72,97	
1556,464	-72,97	
1556,466	-69,21	
1556,468	-72,84	
1556,470	-72,97	
1556,472	-71,49	
1556,474	-71,34	
1556,476	-72,01	
1556,478	-72,85	
1556,480	-72,97	
1556,482	-72,97	
1556,484	-72,97	
1556,486	-71,74	
1556,488	-72,97	
1556,490	-72,97	
1556,492	-71,71	
1556,494	-70,21	
1556,496	-72,97	
1556,498	-72,97	
1556,500	-72,97	
1556,502	-72,97	
1556,504	-72,97	
1556,506	-69,64	
1556,508	-70,80	
1556,510	-71,17	
1556,512	-70,50	
1556,514	-69,87	
1556,516	-72,97	
1556,518	-71,49	
1556,520	-72,97	
1556,522	-72,97	
1556,524	-72,97	
1556,526	-72,97	
1556,528	-72,97	
1556,530	-72,97	
1556,532	-71,67	
1556,534	-72,97	
1556,536	-72,97	
1556,538	-72,97	
1556,540	-70,99	
1556,542	-66,36	
1556,544	-72,97	
1556,546	-72,97	
1556,548	-71,93	
1556,550	-72,97	
1556,552	-72,97	
1556,554	-71,27	
1556,556	-68,89	
1556,558	-68,50	
1556,560	-68,77	
1556,562	-72,97	
1556,564	-72,97	
1556,566	-72,97	
1556,568	-72,97	
1556,570	-72,97	
1556,572	-72,97	
1556,574	-72,97	
1556,576	-72,97	
1556,578	-69,46	
1556,580	-67,11	
1556,582	-67,03	
1556,584	-67,94	
1556,586	-72,97	
1556,588	-70,51	
1556,590	-69,19	
1556,592	-68,72	
1556,594	-71,09	
1556,596	-72,97	
1556,598	-69,86	
1556,600	-72,97	
1556,602	-72,97	
1556,604	-72,97	
1556,606	-72,97	
1556,608	-72,97	
1556,610	-72,97	
1556,612	-72,97	
1556,614	-72,97	
1556,616	-68,53	
1556,618	-72,97	
1556,620	-72,97	
1556,622	-72,97	
1556,624	-72,97	
1556,626	-72,97	
1556,628	-72,97	
1556,630	-72,74	
1556,632	-69,43	
1556,634	-72,97	
1556,636	-72,97	
1556,638	-72,97	
1556,640	-72,97	
1556,642	-72,97	
1556,644	-71,64	
1556,646	-67,53	
1556,648	-72,26	
1556,650	-69,19	
1556,652	-68,87	
1556,654	-70,73	
1556,656	-72,97	
1556,658	-72,97	
1556,660	-72,97	
1556,662	-72,97	
1556,664	-72,97	
1556,666	-72,97	
1556,668	-72,97	
1556,670	-72,97	
1556,672	-69,93	
1556,674	-72,28	
1556,676	-72,97	
1556,678	-72,97	
1556,680	-72,97	
1556,682	-72,87	
1556,684	-72,97	
1556,686	-72,97	
1556,688	-69,82	
1556,690	-69,34	
1556,692	-70,46	
1556,694	-72,02	
1556,696	-67,73	
1556,698	-70,80	
1556,700	-70,45	
1556,702	-68,94	
1556,704	-72,89	
1556,706	-72,97	
1556,708	-72,97	
1556,710	-72,97	
1556,712	-72,97	
1556,714	-72,97	
1556,716	-70,28	
1556,718	-72,97	
1556,720	-70,82	
1556,722	-72,97	
1556,724	-72,97	
1556,726	-71,98	
1556,728	-70,37	
1556,730	-71,92	
1556,732	-70,68	
1556,734	-72,97	
1556,736	-72,97	
1556,738	-72,97	
1556,740	-72,97	
1556,742	-72,97	
1556,744	-72,97	
1556,746	-72,97	
1556,748	-72,97	
1556,750	-72,86	
1556,752	-68,14	
1556,754	-71,43	
1556,756	-72,97	
1556,758	-72,97	
1556,760	-69,99	
1556,762	-72,97	
1556,764	-72,97	
1556,766	-72,97	
1556,768	-72,97	
1556,770	-72,45	
1556,772	-72,97	
1556,774	-70,79	
1556,776	-72,97	
1556,778	-67,14	
1556,780	-69,94	
1556,782	-72,97	
1556,784	-72,97	
1556,786	-72,97	
1556,788	-67,68	
1556,790	-72,97	
1556,792	-71,36	
1556,794	-72,97	
1556,796	-70,00	
1556,798	-71,37	
1556,800	-71,08	
1556,802	-70,52	
1556,804	-70,90	
1556,806	-69,92	
1556,808	-69,23	
1556,810	-70,64	
1556,812	-71,49	
1556,814	-72,13	
1556,816	-72,97	
1556,818	-72,97	
1556,820	-72,97	
1556,822	-72,95	
1556,824	-72,31	
1556,826	-72,97	
1556,828	-72,58	
1556,830	-72,97	
1556,832	-72,97	
1556,834	-72,97	
1556,836	-69,82	
1556,838	-70,55	
1556,840	-70,42	
1556,842	-70,33	
1556,844	-71,56	
1556,846	-72,97	
1556,848	-70,63	
1556,850	-72,97	
1556,852	-72,97	
1556,854	-72,97	
1556,856	-72,97	
1556,858	-72,97	
1556,860	-70,08	
1556,862	-71,50	
1556,864	-70,73	
1556,866	-72,97	
1556,868	-71,56	
1556,870	-71,13	
1556,872	-71,96	
1556,874	-66,08	
1556,876	-67,74	
1556,878	-72,97	
1556,880	-72,97	
1556,882	-72,41	
1556,884	-72,41	
1556,886	-72,43	
1556,888	-72,97	
1556,890	-69,48	
1556,892	-72,97	
1556,894	-69,15	
1556,896	-69,54	
1556,898	-70,88	
1556,900	-71,16	
1556,902	-70,04	
1556,904	-71,15	
1556,906	-72,97	
1556,908	-67,14	
1556,910	-72,97	
1556,912	-72,97	
1556,914	-71,56	
1556,916	-71,44	
1556,918	-72,97	
1556,920	-72,97	
1556,922	-71,86	
1556,924	-71,10	
1556,926	-72,97	
1556,928	-72,97	
1556,930	-72,97	
1556,932	-72,97	
1556,934	-72,97	
1556,936	-72,97	
1556,938	-69,48	
1556,940	-67,61	
1556,942	-70,35	
1556,944	-72,97	
1556,946	-70,63	
1556,948	-71,96	
1556,950	-72,97	
1556,952	-71,82	
1556,954	-72,94	
1556,956	-70,81	
1556,958	-72,97	
1556,960	-72,97	
1556,962	-72,97	
1556,964	-72,97	
1556,966	-72,97	
1556,968	-72,97	
1556,970	-72,97	
1556,972	-70,59	
1556,974	-72,97	
1556,976	-69,40	
1556,978	-72,97	
1556,980	-72,97	
1556,982	-70,67	
1556,984	-71,30	
1556,986	-72,97	
1556,988	-72,97	
1556,990	-72,97	
1556,992	-72,97	
1556,994	-72,97	
1556,996	-72,97	
1556,998	-72,36	
1557,000	-71,40	
1557,002	-70,61	
1557,004	-70,52	
1557,006	-69,63	
1557,008	-72,97	
1557,010	-72,97	
1557,012	-72,97	
1557,014	-72,97	
1557,016	-72,97	
1557,018	-72,97	
1557,020	-72,97	
1557,022	-72,97	
1557,024	-72,97	
1557,026	-72,92	
1557,028	-71,48	
1557,030	-72,70	
1557,032	-71,39	
1557,034	-71,74	
1557,036	-71,87	
1557,038	-72,97	
1557,040	-72,97	
1557,042	-72,97	
1557,044	-68,62	
1557,046	-72,97	
1557,048	-72,97	
1557,050	-72,97	
1557,052	-71,88	
1557,054	-69,73	
1557,056	-70,83	
1557,058	-72,97	
1557,060	-72,24	
1557,062	-72,97	
1557,064	-72,97	
1557,066	-72,46	
1557,068	-72,68	
1557,070	-72,97	
1557,072	-72,97	
1557,074	-71,33	
1557,076	-72,61	
1557,078	-68,01	
1557,080	-69,35	
1557,082	-72,97	
1557,084	-72,97	
1557,086	-72,97	
1557,088	-72,97	
1557,090	-72,97	
1557,092	-72,01	
1557,094	-69,88	
1557,096	-69,45	
1557,098	-69,12	
1557,100	-69,20	
1557,102	-72,97	
1557,104	-72,97	
1557,106	-72,97	
1557,108	-70,16	
1557,110	-72,97	
1557,112	-72,97	
1557,114	-72,97	
1557,116	-71,98	
1557,118	-72,97	
1557,120	-69,87	
1557,122	-72,97	
1557,124	-72,97	
1557,126	-72,97	
1557,128	-72,97	
1557,130	-72,97	
1557,132	-72,97	
1557,134	-72,83	
1557,136	-72,73	
1557,138	-72,97	
1557,140	-72,97	
1557,142	-72,97	
1557,144	-72,97	
1557,146	-71,01	
1557,148	-72,97	
1557,150	-71,04	
1557,152	-72,97	
1557,154	-72,97	
1557,156	-72,97	
1557,158	-72,97	
1557,160	-71,62	
1557,162	-69,50	
1557,164	-67,85	
1557,166	-71,58	
1557,168	-71,08	
1557,170	-71,29	
1557,172	-72,52	
1557,174	-70,55	
1557,176	-71,98	
1557,178	-72,97	
1557,180	-71,32	
1557,182	-69,25	
1557,184	-71,38	
1557,186	-72,97	
1557,188	-71,90	
1557,190	-71,53	
1557,192	-72,97	
1557,194	-72,97	
1557,196	-72,97	
1557,198	-69,10	
1557,200	-72,97	
1557,202	-72,97	
1557,204	-72,97	
1557,206	-72,97	
1557,208	-72,97	
1557,210	-72,97	
1557,212	-71,34	
1557,214	-69,40	
1557,216	-72,97	
1557,218	-70,49	
1557,220	-67,64	
1557,222	-71,43	
1557,224	-72,16	
1557,226	-71,38	
1557,228	-72,97	
1557,230	-72,97	
1557,232	-72,07	
1557,234	-72,97	
1557,236	-72,97	
1557,238	-72,97	
1557,240	-72,97	
1557,242	-72,97	
1557,244	-72,97	
1557,246	-72,97	
1557,248	-72,97	
1557,250	-72,97	
1557,252	-71,11	
1557,254	-72,97	
1557,256	-72,97	
1557,258	-72,97	
1557,260	-72,97	
1557,262	-72,97	
1557,264	-72,97	
1557,266	-72,97	
1557,268	-72,97	
1557,270	-72,97	
1557,272	-72,97	
1557,274	-70,68	
1557,276	-67,34	
1557,278	-72,97	
1557,280	-72,97	
1557,282	-72,07	
1557,284	-69,85	
1557,286	-69,65	
1557,288	-70,06	
1557,290	-71,99	
1557,292	-72,97	
1557,294	-72,97	
1557,296	-72,97	
1557,298	-72,97	
1557,300	-72,97	
1557,302	-71,19	
1557,304	-72,97	
1557,306	-72,97	
1557,308	-71,52	
1557,310	-72,97	
1557,312	-71,63	
1557,314	-68,85	
1557,316	-70,07	
1557,318	-72,26	
1557,320	-72,97	
1557,322	-72,97	
1557,324	-67,97	
1557,326	-68,48	
1557,328	-69,42	
1557,330	-68,43	
1557,332	-72,97	
1557,334	-72,97	
1557,336	-70,71	
1557,338	-70,31	
1557,340	-68,48	
1557,342	-66,49	
1557,344	-70,44	
1557,346	-72,03	
1557,348	-72,97	
1557,350	-72,60	
1557,352	-69,71	
1557,354	-72,86	
1557,356	-72,89	
1557,358	-72,97	
1557,360	-72,97	
1557,362	-72,97	
1557,364	-72,97	
1557,366	-69,65	
1557,368	-69,68	
1557,370	-72,97	
1557,372	-72,97	
1557,374	-71,50	
1557,376	-72,97	
1557,378	-72,97	
1557,380	-72,97	
1557,382	-72,97	
1557,384	-72,97	
1557,386	-72,97	
1557,388	-71,35	
1557,390	-72,38	
1557,392	-72,97	
1557,394	-72,97	
1557,396	-72,97	
1557,398	-71,93	
1557,400	-72,97	
1557,402	-66,93	
1557,404	-67,61	
1557,406	-67,61	
1557,408	-70,54	
1557,410	-69,42	
1557,412	-70,30	
1557,414	-72,97	
1557,416	-72,97	
1557,418	-71,38	
1557,420	-72,97	
1557,422	-72,97	
1557,424	-72,97	
1557,426	-72,97	
1557,428	-72,81	
1557,430	-70,96	
1557,432	-71,64	
1557,434	-72,17	
1557,436	-71,28	
1557,438	-72,97	
1557,440	-72,97	
1557,442	-68,88	
1557,444	-71,18	
1557,446	-72,97	
1557,448	-72,97	
1557,450	-72,97	
1557,452	-72,97	
1557,454	-72,97	
1557,456	-72,97	
1557,458	-70,97	
1557,460	-68,32	
1557,462	-72,50	
1557,464	-68,49	
1557,466	-72,97	
1557,468	-72,97	
1557,470	-72,97	
1557,472	-72,97	
1557,474	-72,97	
1557,476	-72,97	
1557,478	-71,03	
1557,480	-71,97	
1557,482	-72,97	
1557,484	-72,97	
1557,486	-68,12	
1557,488	-72,21	
1557,490	-72,97	
1557,492	-72,23	
1557,494	-72,97	
1557,496	-72,97	
1557,498	-72,97	
1557,500	-72,97	
1557,502	-69,75	
1557,504	-69,97	
1557,506	-69,56	
1557,508	-72,44	
1557,510	-72,97	
1557,512	-68,69	
1557,514	-70,76	
1557,516	-72,97	
1557,518	-72,97	
1557,520	-71,25	
1557,522	-70,41	
1557,524	-68,07	
1557,526	-69,31	
1557,528	-70,34	
1557,530	-72,97	
1557,532	-72,97	
1557,534	-72,18	
1557,536	-72,97	
1557,538	-72,97	
1557,540	-72,97	
1557,542	-72,97	
1557,544	-72,41	
1557,546	-72,97	
1557,548	-72,97	
1557,550	-72,55	
1557,552	-71,07	
1557,554	-72,97	
1557,556	-70,55	
1557,558	-72,16	
1557,560	-72,97	
1557,562	-72,97	
1557,564	-72,97	
1557,566	-72,97	
1557,568	-72,38	
1557,570	-71,77	
1557,572	-72,97	
1557,574	-72,97	
1557,576	-72,97	
1557,578	-71,29	
1557,580	-72,97	
1557,582	-72,85	
1557,584	-72,97	
1557,586	-72,97	
1557,588	-71,53	
1557,590	-69,97	
1557,592	-67,91	
1557,594	-69,67	
1557,596	-70,76	
1557,598	-72,62	
1557,600	-72,97	
1557,602	-72,97	
1557,604	-72,97	
1557,606	-72,97	
1557,608	-72,97	
1557,610	-72,97	
1557,612	-69,06	
1557,614	-68,44	
1557,616	-69,57	
1557,618	-70,59	
1557,620	-72,08	
1557,622	-72,97	
1557,624	-72,97	
1557,626	-71,17	
1557,628	-72,97	
1557,630	-71,78	
1557,632	-68,23	
1557,634	-72,97	
1557,636	-72,97	
1557,638	-72,97	
1557,640	-71,54	
1557,642	-69,39	
1557,644	-72,97	
1557,646	-71,15	
1557,648	-72,97	
1557,650	-72,97	
1557,652	-72,72	
1557,654	-72,97	
1557,656	-72,25	
1557,658	-72,08	
1557,660	-69,44	
1557,662	-71,23	
1557,664	-70,59	
1557,666	-68,61	
1557,668	-70,04	
1557,670	-70,15	
1557,672	-72,97	
1557,674	-66,42	
1557,676	-70,15	
1557,678	-70,89	
1557,680	-72,81	
1557,682	-71,45	
1557,684	-70,07	
1557,686	-69,47	
1557,688	-72,56	
1557,690	-72,97	
1557,692	-69,58	
1557,694	-71,21	
1557,696	-72,97	
1557,698	-72,97	
1557,700	-72,97	
1557,702	-72,00	
1557,704	-72,11	
1557,706	-71,69	
1557,708	-72,97	
1557,710	-72,97	
1557,712	-71,45	
1557,714	-69,02	
1557,716	-69,19	
1557,718	-70,57	
1557,720	-72,97	
1557,722	-70,52	
1557,724	-71,50	
1557,726	-72,97	
1557,728	-69,28	
1557,730	-72,97	
1557,732	-72,97	
1557,734	-72,97	
1557,736	-72,97	
1557,738	-72,97	
1557,740	-72,97	
1557,742	-72,97	
1557,744	-68,36	
1557,746	-72,97	
1557,748	-72,97	
1557,750	-70,61	
1557,752	-72,97	
1557,754	-72,97	
1557,756	-71,96	
1557,758	-70,73	
1557,760	-69,51	
1557,762	-68,59	
1557,764	-69,06	
1557,766	-68,86	
1557,768	-67,25	
1557,770	-68,99	
1557,772	-66,57	
1557,774	-72,97	
1557,776	-72,97	
1557,778	-71,78	
1557,780	-72,97	
1557,782	-72,97	
1557,784	-72,97	
1557,786	-72,97	
1557,788	-72,97	
1557,790	-72,97	
1557,792	-72,97	
1557,794	-72,97	
1557,796	-72,97	
1557,798	-72,97	
1557,800	-71,31	
1557,802	-72,97	
1557,804	-72,97	
1557,806	-66,79	
1557,808	-69,64	
1557,810	-71,80	
1557,812	-72,97	
1557,814	-72,97	
1557,816	-72,97	
1557,818	-70,08	
1557,820	-72,97	
1557,822	-72,22	
1557,824	-72,97	
1557,826	-72,97	
1557,828	-72,97	
1557,830	-72,97	
1557,832	-72,97	
1557,834	-72,97	
1557,836	-72,97	
1557,838	-72,14	
1557,840	-69,62	
1557,842	-68,49	
1557,844	-72,97	
1557,846	-72,97	
1557,848	-72,97	
1557,850	-72,97	
1557,852	-70,40	
1557,854	-70,49	
1557,856	-70,75	
1557,858	-72,97	
1557,860	-72,97	
1557,862	-72,97	
1557,864	-72,97	
1557,866	-72,97	
1557,868	-70,20	
1557,870	-72,97	
1557,872	-72,97	
1557,874	-72,97	
1557,876	-72,97	
1557,878	-72,97	
1557,880	-72,97	
1557,882	-72,97	
1557,884	-71,24	
1557,886	-70,85	
1557,888	-72,19	
1557,890	-70,64	
1557,892	-72,97	
1557,894	-68,59	
1557,896	-70,55	
1557,898	-72,97	
1557,900	-71,18	
1557,902	-72,97	
1557,904	-72,97	
1557,906	-72,97	
1557,908	-72,97	
1557,910	-72,97	
1557,912	-69,40	
1557,914	-69,80	
1557,916	-72,97	
1557,918	-72,97	
1557,920	-72,97	
1557,922	-72,97	
1557,924	-70,69	
1557,926	-71,28	
1557,928	-72,97	
1557,930	-72,97	
1557,932	-72,97	
1557,934	-72,97	
1557,936	-72,97	
1557,938	-72,97	
1557,940	-72,97	
1557,942	-68,82	
1557,944	-66,71	
1557,946	-65,59	
1557,948	-66,62	
1557,950	-68,32	
1557,952	-69,08	
1557,954	-71,36	
1557,956	-72,97	
1557,958	-72,97	
1557,960	-72,97	
1557,962	-72,97	
1557,964	-72,97	
1557,966	-72,97	
1557,968	-72,97	
1557,970	-72,97	
1557,972	-68,47	
1557,974	-72,11	
1557,976	-67,04	
1557,978	-72,97	
1557,980	-72,08	
1557,982	-71,40	
1557,984	-72,97	
1557,986	-72,97	
1557,988	-72,79	
1557,990	-72,97	
1557,992	-72,97	
1557,994	-72,97	
1557,996	-71,00	
1557,998	-72,97	
1558,000	-72,97	
1558,002	-72,97	
1558,004	-68,81	
1558,006	-67,68	
1558,008	-67,48	
1558,010	-71,32	
1558,012	-72,97	
1558,014	-72,18	
1558,016	-72,97	
1558,018	-72,97	
1558,020	-72,97	
1558,022	-72,97	
1558,024	-72,97	
1558,026	-72,97	
1558,028	-72,94	
1558,030	-67,38	
1558,032	-68,60	
1558,034	-71,99	
1558,036	-68,69	
1558,038	-72,97	
1558,040	-72,97	
1558,042	-72,97	
1558,044	-72,97	
1558,046	-72,97	
1558,048	-72,72	
1558,050	-72,97	
1558,052	-72,79	
1558,054	-69,47	
1558,056	-72,11	
1558,058	-71,09	
1558,060	-72,97	
1558,062	-72,97	
1558,064	-70,72	
1558,066	-71,06	
1558,068	-72,97	
1558,070	-72,97	
1558,072	-70,13	
1558,074	-71,48	
1558,076	-70,30	
1558,078	-72,97	
1558,080	-72,41	
1558,082	-72,97	
1558,084	-72,97	
1558,086	-72,43	
1558,088	-67,64	
1558,090	-70,19	
1558,092	-72,97	
1558,094	-72,97	
1558,096	-72,97	
1558,098	-72,97	
1558,100	-67,86	
1558,102	-72,97	
1558,104	-71,51	
1558,106	-68,93	
1558,108	-67,26	
1558,110	-71,12	
1558,112	-70,77	
1558,114	-72,97	
1558,116	-72,97	
1558,118	-72,97	
1558,120	-72,97	
1558,122	-72,03	
1558,124	-72,97	
1558,126	-72,97	
1558,128	-72,97	
1558,130	-68,67	
1558,132	-69,14	
1558,134	-72,97	
1558,136	-72,97	
1558,138	-72,97	
1558,140	-72,97	
1558,142	-68,99	
1558,144	-69,28	
1558,146	-70,24	
1558,148	-72,97	
1558,150	-70,97	
1558,152	-66,08	
1558,154	-72,97	
1558,156	-72,97	
1558,158	-72,81	
1558,160	-72,97	
1558,162	-72,97	
1558,164	-72,97	
1558,166	-72,97	
1558,168	-72,97	
1558,170	-71,62	
1558,172	-68,36	
1558,174	-72,02	
1558,176	-66,47	
1558,178	-67,03	
1558,180	-69,12	
1558,182	-70,35	
1558,184	-72,87	
1558,186	-72,97	
1558,188	-72,97	
1558,190	-72,97	
1558,192	-72,97	
1558,194	-72,97	
1558,196	-72,97	
1558,198	-70,00	
1558,200	-68,08	
1558,202	-72,53	
1558,204	-72,97	
1558,206	-72,92	
1558,208	-67,95	
1558,210	-70,67	
1558,212	-72,97	
1558,214	-72,97	
1558,216	-72,97	
1558,218	-71,38	
1558,220	-67,72	
1558,222	-72,97	
1558,224	-72,97	
1558,226	-68,98	
1558,228	-69,74	
1558,230	-72,18	
1558,232	-71,69	
1558,234	-69,22	
1558,236	-68,63	
1558,238	-72,97	
1558,240	-72,97	
1558,242	-72,97	
1558,244	-72,97	
1558,246	-72,97	
1558,248	-72,97	
1558,250	-72,97	
1558,252	-72,97	
1558,254	-72,59	
1558,256	-72,97	
1558,258	-72,36	
1558,260	-67,39	
1558,262	-68,65	
1558,264	-72,97	
1558,266	-67,85	
1558,268	-72,97	
1558,270	-72,20	
1558,272	-72,24	
1558,274	-72,97	
1558,276	-72,97	
1558,278	-69,66	
1558,280	-71,66	
1558,282	-72,97	
1558,284	-72,97	
1558,286	-72,97	
1558,288	-72,97	
1558,290	-72,97	
1558,292	-72,97	
1558,294	-70,06	
1558,296	-68,99	
1558,298	-67,62	
1558,300	-72,97	
1558,302	-70,27	
1558,304	-72,97	
1558,306	-72,97	
1558,308	-70,49	
1558,310	-70,85	
1558,312	-72,97	
1558,314	-71,87	
1558,316	-71,28	
1558,318	-71,76	
1558,320	-70,85	
1558,322	-71,61	
1558,324	-71,81	
1558,326	-72,76	
1558,328	-71,80	
1558,330	-72,97	
1558,332	-70,53	
1558,334	-72,97	
1558,336	-72,97	
1558,338	-71,43	
1558,340	-72,97	
1558,342	-72,97	
1558,344	-72,97	
1558,346	-72,14	
1558,348	-70,45	
1558,350	-71,65	
1558,352	-72,97	
1558,354	-72,97	
1558,356	-72,97	
1558,358	-72,97	
1558,360	-72,97	
1558,362	-72,63	
1558,364	-70,42	
1558,366	-71,34	
1558,368	-70,14	
1558,370	-70,90	
1558,372	-67,67	
1558,374	-72,73	
1558,376	-72,97	
1558,378	-72,97	
1558,380	-68,91	
1558,382	-70,07	
1558,384	-72,97	
1558,386	-72,97	
1558,388	-69,80	
1558,390	-70,97	
1558,392	-72,38	
1558,394	-72,97	
1558,396	-72,97	
1558,398	-72,97	
1558,400	-72,97	
1558,402	-72,97	
1558,404	-72,97	
1558,406	-72,97	
1558,408	-72,94	
1558,410	-72,97	
1558,412	-72,10	
1558,414	-67,79	
1558,416	-72,97	
1558,418	-72,97	
1558,420	-72,97	
1558,422	-72,97	
1558,424	-67,29	
1558,426	-71,91	
1558,428	-72,97	
1558,430	-72,97	
1558,432	-69,46	
1558,434	-68,48	
1558,436	-72,97	
1558,438	-72,97	
1558,440	-72,97	
1558,442	-72,97	
1558,444	-72,97	
1558,446	-72,97	
1558,448	-72,79	
1558,450	-72,38	
1558,452	-72,97	
1558,454	-71,43	
1558,456	-72,13	
1558,458	-72,97	
1558,460	-69,29	
1558,462	-69,72	
1558,464	-67,94	
1558,466	-72,97	
1558,468	-72,97	
1558,470	-72,11	
1558,472	-72,97	
1558,474	-72,97	
1558,476	-69,94	
1558,478	-72,97	
1558,480	-68,55	
1558,482	-72,36	
1558,484	-71,78	
1558,486	-67,86	
1558,488	-72,97	
1558,490	-72,97	
1558,492	-72,97	
1558,494	-72,97	
1558,496	-71,43	
1558,498	-70,61	
1558,500	-72,65	
1558,502	-72,97	
1558,504	-72,97	
1558,506	-72,97	
1558,508	-72,97	
1558,510	-72,97	
1558,512	-72,97	
1558,514	-72,97	
1558,516	-72,97	
1558,518	-72,97	
1558,520	-68,80	
1558,522	-70,33	
1558,524	-69,10	
1558,526	-72,14	
1558,528	-68,89	
1558,530	-72,97	
1558,532	-71,89	
1558,534	-68,87	
1558,536	-68,56	
1558,538	-72,97	
1558,540	-72,97	
1558,542	-72,97	
1558,544	-72,97	
1558,546	-72,46	
1558,548	-69,47	
1558,550	-70,11	
1558,552	-72,97	
1558,554	-72,97	
1558,556	-72,97	
1558,558	-72,97	
1558,560	-70,20	
1558,562	-72,97	
1558,564	-72,97	
1558,566	-72,97	
1558,568	-72,97	
1558,570	-72,97	
1558,572	-72,97	
1558,574	-72,97	
1558,576	-72,97	
1558,578	-72,97	
1558,580	-72,97	
1558,582	-72,97	
1558,584	-71,63	
1558,586	-67,77	
1558,588	-69,86	
1558,590	-72,97	
1558,592	-72,97	
1558,594	-72,97	
1558,596	-72,97	
1558,598	-72,97	
1558,600	-71,22	
1558,602	-72,84	
1558,604	-68,97	
1558,606	-68,88	
1558,608	-68,23	
1558,610	-70,29	
1558,612	-68,33	
1558,614	-72,97	
1558,616	-72,97	
1558,618	-69,94	
1558,620	-72,35	
1558,622	-72,63	
1558,624	-72,97	
1558,626	-72,97	
1558,628	-72,97	
1558,630	-72,97	
1558,632	-72,97	
1558,634	-72,97	
1558,636	-72,97	
1558,638	-67,00	
1558,640	-67,49	
1558,642	-72,23	
1558,644	-70,82	
1558,646	-71,60	
1558,648	-72,97	
1558,650	-72,97	
1558,652	-72,97	
1558,654	-71,33	
1558,656	-72,97	
1558,658	-72,83	
1558,660	-69,94	
1558,662	-69,70	
1558,664	-71,69	
1558,666	-72,97	
1558,668	-72,97	
1558,670	-72,97	
1558,672	-72,97	
1558,674	-72,97	
1558,676	-72,97	
1558,678	-72,88	
1558,680	-67,73	
1558,682	-69,07	
1558,684	-72,97	
1558,686	-69,58	
1558,688	-72,97	
1558,690	-72,97	
1558,692	-72,97	
1558,694	-72,97	
1558,696	-70,43	
1558,698	-72,97	
1558,700	-72,97	
1558,702	-70,92	
1558,704	-70,72	
1558,706	-67,51	
1558,708	-72,97	
1558,710	-69,02	
1558,712	-72,97	
1558,714	-71,76	
1558,716	-72,97	
1558,718	-72,97	
1558,720	-72,97	
1558,722	-69,00	
1558,724	-70,85	
1558,726	-72,97	
1558,728	-72,97	
1558,730	-72,97	
1558,732	-72,97	
1558,734	-69,79	
1558,736	-70,96	
1558,738	-70,93	
1558,740	-69,54	
1558,742	-72,97	
1558,744	-72,97	
1558,746	-72,97	
1558,748	-72,97	
1558,750	-72,97	
1558,752	-68,44	
1558,754	-68,76	
1558,756	-70,70	
1558,758	-71,63	
1558,760	-72,97	
1558,762	-72,14	
1558,764	-68,12	
1558,766	-72,97	
1558,768	-72,97	
1558,770	-72,94	
1558,772	-72,97	
1558,774	-72,97	
1558,776	-69,41	
1558,778	-72,97	
1558,780	-69,02	
1558,782	-72,89	
1558,784	-72,97	
1558,786	-67,39	
1558,788	-70,84	
1558,790	-72,97	
1558,792	-72,97	
1558,794	-71,49	
1558,796	-72,63	
1558,798	-72,97	
1558,800	-71,29	
1558,802	-72,97	
1558,804	-72,97	
1558,806	-72,61	
1558,808	-69,49	
1558,810	-72,43	
1558,812	-72,97	
1558,814	-72,97	
1558,816	-72,45	
1558,818	-72,97	
1558,820	-72,97	
1558,822	-72,87	
1558,824	-72,97	
1558,826	-72,97	
1558,828	-71,33	
1558,830	-68,40	
1558,832	-68,79	
1558,834	-69,49	
1558,836	-71,63	
1558,838	-72,97	
1558,840	-67,33	
1558,842	-67,99	
1558,844	-69,93	
1558,846	-72,97	
1558,848	-72,97	
1558,850	-71,52	
1558,852	-72,55	
1558,854	-72,97	
1558,856	-72,97	
1558,858	-72,97	
1558,860	-72,97	
1558,862	-69,06	
1558,864	-68,85	
1558,866	-72,34	
1558,868	-72,97	
1558,870	-72,11	
1558,872	-72,65	
1558,874	-72,02	
1558,876	-70,58	
1558,878	-71,62	
1558,880	-72,97	
1558,882	-72,97	
1558,884	-72,97	
1558,886	-71,76	
1558,888	-71,02	
1558,890	-70,72	
1558,892	-71,59	
1558,894	-71,69	
1558,896	-72,97	
1558,898	-72,97	
1558,900	-72,97	
1558,902	-72,97	
1558,904	-72,97	
1558,906	-68,73	
1558,908	-71,12	
1558,910	-72,94	
1558,912	-72,97	
1558,914	-72,97	
1558,916	-72,97	
1558,918	-72,97	
1558,920	-71,73	
1558,922	-72,95	
1558,924	-69,53	
1558,926	-72,97	
1558,928	-71,10	
1558,930	-72,97	
1558,932	-69,24	
1558,934	-69,24	
1558,936	-72,53	
1558,938	-71,51	
1558,940	-69,25	
1558,942	-72,97	
1558,944	-67,08	
1558,946	-71,25	
1558,948	-72,97	
1558,950	-72,97	
1558,952	-72,97	
1558,954	-69,11	
1558,956	-67,79	
1558,958	-72,97	
1558,960	-72,97	
1558,962	-72,97	
1558,964	-72,97	
1558,966	-72,97	
1558,968	-70,07	
1558,970	-69,08	
1558,972	-71,19	
1558,974	-69,35	
1558,976	-71,20	
1558,978	-72,97	
1558,980	-72,97	
1558,982	-72,97	
1558,984	-72,97	
1558,986	-72,97	
1558,988	-72,97	
1558,990	-70,52	
1558,992	-72,30	
1558,994	-72,97	
1558,996	-72,97	
1558,998	-67,92	
1559,000	-71,47	
1559,002	-71,59	
1559,004	-67,48	
1559,006	-70,05	
1559,008	-72,97	
1559,010	-72,97	
1559,012	-69,39	
1559,014	-72,65	
1559,016	-72,97	
1559,018	-72,97	
1559,020	-72,97	
1559,022	-72,97	
1559,024	-72,97	
1559,026	-72,97	
1559,028	-72,97	
1559,030	-69,38	
1559,032	-70,22	
1559,034	-65,73	
1559,036	-72,97	
1559,038	-67,14	
1559,040	-72,97	
1559,042	-72,97	
1559,044	-72,97	
1559,046	-72,97	
1559,048	-72,97	
1559,050	-72,97	
1559,052	-71,29	
1559,054	-70,44	
1559,056	-69,81	
1559,058	-72,97	
1559,060	-72,97	
1559,062	-72,01	
1559,064	-72,66	
1559,066	-70,56	
1559,068	-72,97	
1559,070	-72,97	
1559,072	-72,97	
1559,074	-72,97	
1559,076	-72,97	
1559,078	-69,40	
1559,080	-68,71	
1559,082	-70,41	
1559,084	-71,82	
1559,086	-72,97	
1559,088	-72,97	
1559,090	-72,97	
1559,092	-72,97	
1559,094	-70,69	
1559,096	-69,85	
1559,098	-72,97	
1559,100	-68,88	
1559,102	-69,97	
1559,104	-69,51	
1559,106	-71,46	
1559,108	-72,97	
1559,110	-72,97	
1559,112	-72,35	
1559,114	-72,97	
1559,116	-72,97	
1559,118	-70,46	
1559,120	-70,30	
1559,122	-69,97	
1559,124	-72,15	
1559,126	-69,46	
1559,128	-72,38	
1559,130	-70,43	
1559,132	-70,76	
1559,134	-72,72	
1559,136	-72,97	
1559,138	-72,97	
1559,140	-72,97	
1559,142	-70,13	
1559,144	-70,11	
1559,146	-72,97	
1559,148	-71,51	
1559,150	-72,97	
1559,152	-72,97	
1559,154	-72,97	
1559,156	-70,70	
1559,158	-70,04	
1559,160	-69,66	
1559,162	-70,08	
1559,164	-71,52	
1559,166	-72,97	
1559,168	-72,97	
1559,170	-72,97	
1559,172	-72,97	
1559,174	-71,30	
1559,176	-72,97	
1559,178	-69,33	
1559,180	-68,68	
1559,182	-71,35	
1559,184	-72,97	
1559,186	-72,97	
1559,188	-72,31	
1559,190	-72,97	
1559,192	-72,97	
1559,194	-72,97	
1559,196	-69,10	
1559,198	-72,97	
1559,200	-68,28	
1559,202	-67,33	
1559,204	-69,10	
1559,206	-69,07	
1559,208	-70,95	
1559,210	-72,97	
1559,212	-72,97	
1559,214	-72,97	
1559,216	-72,97	
1559,218	-72,97	
1559,220	-72,97	
1559,222	-72,49	
1559,224	-72,97	
1559,226	-72,97	
1559,228	-72,97	
1559,230	-72,97	
1559,232	-72,97	
1559,234	-72,97	
1559,236	-71,35	
1559,238	-72,97	
1559,240	-71,39	
1559,242	-68,56	
1559,244	-70,68	
1559,246	-71,75	
1559,248	-69,34	
1559,250	-70,27	
1559,252	-70,38	
1559,254	-72,95	
1559,256	-71,77	
1559,258	-69,04	
1559,260	-67,53	
1559,262	-68,70	
1559,264	-70,25	
1559,266	-72,97	
1559,268	-72,97	
1559,270	-72,97	
1559,272	-72,97	
1559,274	-72,97	
1559,276	-72,97	
1559,278	-72,97	
1559,280	-72,97	
1559,282	-69,32	
1559,284	-69,95	
1559,286	-70,89	
1559,288	-72,97	
1559,290	-72,97	
1559,292	-72,97	
1559,294	-72,07	
1559,296	-72,97	
1559,298	-72,97	
1559,300	-71,62	
1559,302	-72,97	
1559,304	-67,17	
1559,306	-70,27	
1559,308	-72,97	
1559,310	-72,97	
1559,312	-72,97	
1559,314	-72,01	
1559,316	-69,92	
1559,318	-69,47	
1559,320	-70,65	
1559,322	-72,97	
1559,324	-72,97	
1559,326	-72,97	
1559,328	-72,97	
1559,330	-66,71	
1559,332	-70,64	
1559,334	-67,88	
1559,336	-69,35	
1559,338	-71,43	
1559,340	-71,56	
1559,342	-70,24	
1559,344	-70,55	
1559,346	-72,97	
1559,348	-72,97	
1559,350	-72,97	
1559,352	-72,97	
1559,354	-72,97	
1559,356	-70,60	
1559,358	-72,97	
1559,360	-71,06	
1559,362	-72,97	
1559,364	-72,97	
1559,366	-70,09	
1559,368	-65,81	
1559,370	-68,41	
1559,372	-72,97	
1559,374	-72,97	
1559,376	-72,97	
1559,378	-71,79	
1559,380	-68,16	
1559,382	-71,68	
1559,384	-72,97	
1559,386	-68,89	
1559,388	-72,59	
1559,390	-72,97	
1559,392	-67,83	
1559,394	-70,52	
1559,396	-71,20	
1559,398	-68,57	
1559,400	-71,99	
1559,402	-72,97	
1559,404	-72,97	
1559,406	-72,97	
1559,408	-71,49	
1559,410	-70,34	
1559,412	-72,97	
1559,414	-72,97	
1559,416	-72,97	
1559,418	-71,35	
1559,420	-72,97	
1559,422	-72,97	
1559,424	-72,97	
1559,426	-72,97	
1559,428	-72,97	
1559,430	-69,51	
1559,432	-69,16	
1559,434	-72,24	
1559,436	-72,97	
1559,438	-72,97	
1559,440	-72,97	
1559,442	-72,97	
1559,444	-70,02	
1559,446	-72,97	
1559,448	-72,97	
1559,450	-70,57	
1559,452	-72,97	
1559,454	-67,48	
1559,456	-67,57	
1559,458	-68,45	
1559,460	-68,37	
1559,462	-69,01	
1559,464	-72,97	
1559,466	-72,97	
1559,468	-72,68	
1559,470	-72,97	
1559,472	-70,57	
1559,474	-72,97	
1559,476	-72,97	
1559,478	-72,97	
1559,480	-72,97	
1559,482	-71,47	
1559,484	-68,23	
1559,486	-72,58	
1559,488	-72,97	
1559,490	-72,97	
1559,492	-71,87	
1559,494	-72,97	
1559,496	-72,97	
1559,498	-72,91	
1559,500	-69,80	
1559,502	-69,49	
1559,504	-68,29	
1559,506	-69,21	
1559,508	-72,97	
1559,510	-69,09	
1559,512	-72,89	
1559,514	-72,97	
1559,516	-72,77	
1559,518	-72,77	
1559,520	-72,97	
1559,522	-72,97	
1559,524	-72,97	
1559,526	-72,30	
1559,528	-72,97	
1559,530	-72,97	
1559,532	-72,97	
1559,534	-72,97	
1559,536	-72,97	
1559,538	-70,67	
1559,540	-68,66	
1559,542	-72,97	
1559,544	-72,97	
1559,546	-69,40	
1559,548	-72,97	
1559,550	-72,97	
1559,552	-72,97	
1559,554	-72,97	
1559,556	-72,97	
1559,558	-72,97	
1559,560	-66,56	
1559,562	-72,97	
1559,564	-72,97	
1559,566	-72,97	
1559,568	-72,97	
1559,570	-72,97	
1559,572	-72,97	
1559,574	-68,10	
1559,576	-72,97	
1559,578	-72,97	
1559,580	-68,18	
1559,582	-69,81	
1559,584	-72,97	
1559,586	-72,97	
1559,588	-72,97	
1559,590	-72,97	
1559,592	-72,97	
1559,594	-72,97	
1559,596	-71,49	
1559,598	-69,38	
1559,600	-68,38	
1559,602	-71,43	
1559,604	-72,97	
1559,606	-72,67	
1559,608	-67,68	
1559,610	-67,47	
1559,612	-70,07	
1559,614	-72,97	
1559,616	-72,97	
1559,618	-72,97	
1559,620	-72,97	
1559,622	-69,99	
1559,624	-71,41	
1559,626	-72,97	
1559,628	-72,97	
1559,630	-72,97	
1559,632	-72,97	
1559,634	-72,97	
1559,636	-72,03	
1559,638	-72,97	
1559,640	-72,79	
1559,642	-72,97	
1559,644	-72,97	
1559,646	-72,97	
1559,648	-72,97	
1559,650	-72,97	
1559,652	-72,97	
1559,654	-72,97	
1559,656	-72,97	
1559,658	-72,97	
1559,660	-70,59	
1559,662	-71,92	
1559,664	-69,11	
1559,666	-67,15	
1559,668	-68,00	
1559,670	-72,41	
1559,672	-72,97	
1559,674	-72,97	
1559,676	-72,97	
1559,678	-72,97	
1559,680	-71,08	
1559,682	-72,97	
1559,684	-72,97	
1559,686	-72,97	
1559,688	-72,97	
1559,690	-72,97	
1559,692	-70,70	
1559,694	-69,98	
1559,696	-69,86	
1559,698	-70,13	
1559,700	-70,77	
1559,702	-72,89	
1559,704	-70,71	
1559,706	-66,61	
1559,708	-67,16	
1559,710	-72,22	
1559,712	-72,97	
1559,714	-72,97	
1559,716	-72,36	
1559,718	-70,69	
1559,720	-72,97	
1559,722	-72,97	
1559,724	-72,97	
1559,726	-70,30	
1559,728	-71,07	
1559,730	-69,71	
1559,732	-72,97	
1559,734	-72,97	
1559,736	-72,97	
1559,738	-72,47	
1559,740	-72,97	
1559,742	-72,97	
1559,744	-69,09	
1559,746	-72,97	
1559,748	-68,93	
1559,750	-68,25	
1559,752	-69,57	
1559,754	-69,56	
1559,756	-72,97	
1559,758	-72,97	
1559,760	-72,97	
1559,762	-72,97	
1559,764	-72,97	
1559,766	-72,97	
1559,768	-70,20	
1559,770	-72,97	
1559,772	-71,63	
1559,774	-72,97	
1559,776	-68,67	
1559,778	-66,50	
1559,780	-71,53	
1559,782	-72,97	
1559,784	-69,75	
1559,786	-72,97	
1559,788	-72,97	
1559,790	-72,97	
1559,792	-71,82	
1559,794	-72,97	
1559,796	-72,97	
1559,798	-70,27	
1559,800	-71,49	
1559,802	-72,97	
1559,804	-70,06	
1559,806	-67,90	
1559,808	-72,97	
1559,810	-72,97	
1559,812	-72,68	
1559,814	-70,85	
1559,816	-71,11	
1559,818	-72,97	
1559,820	-72,97	
1559,822	-72,97	
1559,824	-72,97	
1559,826	-72,97	
1559,828	-72,97	
1559,830	-72,97	
1559,832	-71,21	
1559,834	-72,97	
1559,836	-70,15	
1559,838	-66,57	
1559,840	-69,97	
1559,842	-72,97	
1559,844	-72,97	
1559,846	-72,97	
1559,848	-69,15	
1559,850	-71,01	
1559,852	-72,97	
1559,854	-72,97	
1559,856	-72,97	
1559,858	-72,97	
1559,860	-72,97	
1559,862	-72,97	
1559,864	-72,97	
1559,866	-67,05	
1559,868	-71,10	
1559,870	-70,98	
1559,872	-68,75	
1559,874	-71,07	
1559,876	-69,64	
1559,878	-69,19	
1559,880	-72,97	
1559,882	-72,97	
1559,884	-72,80	
1559,886	-71,21	
1559,888	-71,48	
1559,890	-72,97	
1559,892	-72,97	
1559,894	-72,49	
1559,896	-72,97	
1559,898	-72,97	
1559,900	-71,56	
1559,902	-69,45	
1559,904	-67,37	
1559,906	-68,84	
1559,908	-72,97	
1559,910	-72,97	
1559,912	-72,97	
1559,914	-70,78	
1559,916	-71,61	
1559,918	-72,97	
1559,920	-72,07	
1559,922	-72,97	
1559,924	-72,97	
1559,926	-72,37	
1559,928	-71,27	
1559,930	-67,55	
1559,932	-72,97	
1559,934	-72,97	
1559,936	-70,45	
1559,938	-68,35	
1559,940	-72,97	
1559,942	-70,31	
1559,944	-69,92	
1559,946	-70,15	
1559,948	-71,62	
1559,950	-71,70	
1559,952	-72,43	
1559,954	-69,05	
1559,956	-67,24	
1559,958	-68,99	
1559,960	-68,67	
1559,962	-71,15	
1559,964	-72,97	
1559,966	-69,74	
1559,968	-71,26	
1559,970	-72,80	
1559,972	-72,97	
1559,974	-72,97	
1559,976	-72,97	
1559,978	-72,97	
1559,980	-72,97	
1559,982	-72,97	
1559,984	-72,97	
1559,986	-72,97	
1559,988	-72,97	
1559,990	-69,82	
1559,992	-69,49	
1559,994	-68,65	
1559,996	-72,97	
1559,998	-72,97	
1560,000	-72,97	


